#T(K) SVP (Pa) Source : http://pages.uoregon.edu/rjd/vapor18.htm, J. Donnelly
0.6500	1.100000e-01
0.6510	1.126442e-01
0.6520	1.153070e-01
0.6530	1.179899e-01
0.6540	1.206941e-01
0.6550	1.234212e-01
0.6560	1.261724e-01
0.6570	1.289491e-01
0.6580	1.317527e-01
0.6590	1.345846e-01
0.6600	1.374462e-01
0.6610	1.403387e-01
0.6620	1.432637e-01
0.6630	1.462225e-01
0.6640	1.492164e-01
0.6650	1.522468e-01
0.6660	1.553151e-01
0.6670	1.584227e-01
0.6680	1.615710e-01
0.6690	1.647612e-01
0.6700	1.679949e-01
0.6710	1.712733e-01
0.6720	1.745979e-01
0.6730	1.779700e-01
0.6740	1.813910e-01
0.6750	1.848622e-01
0.6760	1.883851e-01
0.6770	1.919610e-01
0.6780	1.955913e-01
0.6790	1.992773e-01
0.6800	2.030205e-01
0.6810	2.068222e-01
0.6820	2.106838e-01
0.6830	2.146067e-01
0.6840	2.185922e-01
0.6850	2.226417e-01
0.6860	2.267566e-01
0.6870	2.309382e-01
0.6880	2.351880e-01
0.6890	2.395073e-01
0.6900	2.438974e-01
0.6910	2.483599e-01
0.6920	2.528959e-01
0.6930	2.575070e-01
0.6940	2.621944e-01
0.6950	2.669596e-01
0.6960	2.718039e-01
0.6970	2.767288e-01
0.6980	2.817355e-01
0.6990	2.868254e-01
0.7000	2.920000e-01
0.7010	2.972606e-01
0.7020	3.026085e-01
0.7030	3.080452e-01
0.7040	3.135721e-01
0.7050	3.191904e-01
0.7060	3.249016e-01
0.7070	3.307070e-01
0.7080	3.366081e-01
0.7090	3.426061e-01
0.7100	3.487026e-01
0.7110	3.548987e-01
0.7120	3.611960e-01
0.7130	3.675958e-01
0.7140	3.740994e-01
0.7150	3.807083e-01
0.7160	3.874238e-01
0.7170	3.942473e-01
0.7180	4.011802e-01
0.7190	4.082238e-01
0.7200	4.153795e-01
0.7210	4.226487e-01
0.7220	4.300327e-01
0.7230	4.375330e-01
0.7240	4.451509e-01
0.7250	4.528878e-01
0.7260	4.607450e-01
0.7270	4.687240e-01
0.7280	4.768261e-01
0.7290	4.850527e-01
0.7300	4.934051e-01
0.7310	5.018848e-01
0.7320	5.104930e-01
0.7330	5.192313e-01
0.7340	5.281009e-01
0.7350	5.371032e-01
0.7360	5.462396e-01
0.7370	5.555115e-01
0.7380	5.649203e-01
0.7390	5.744673e-01
0.7400	5.841538e-01
0.7410	5.939814e-01
0.7420	6.039513e-01
0.7430	6.140649e-01
0.7440	6.243236e-01
0.7450	6.347288e-01
0.7460	6.452819e-01
0.7470	6.559841e-01
0.7480	6.668370e-01
0.7490	6.778418e-01
0.7500	6.890000e-01
0.7510	7.003129e-01
0.7520	7.117823e-01
0.7530	7.234099e-01
0.7540	7.351973e-01
0.7550	7.471463e-01
0.7560	7.592587e-01
0.7570	7.715360e-01
0.7580	7.839802e-01
0.7590	7.965928e-01
0.7600	8.093756e-01
0.7610	8.223303e-01
0.7620	8.354587e-01
0.7630	8.487625e-01
0.7640	8.622433e-01
0.7650	8.759029e-01
0.7660	8.897430e-01
0.7670	9.037654e-01
0.7680	9.179718e-01
0.7690	9.323638e-01
0.7700	9.469432e-01
0.7710	9.617118e-01
0.7720	9.766712e-01
0.7730	9.918231e-01
0.7740	1.007169e+00
0.7750	1.022712e+00
0.7760	1.038452e+00
0.7770	1.054391e+00
0.7780	1.070532e+00
0.7790	1.086875e+00
0.7800	1.103423e+00
0.7810	1.120177e+00
0.7820	1.137140e+00
0.7830	1.154312e+00
0.7840	1.171696e+00
0.7850	1.189293e+00
0.7860	1.207104e+00
0.7870	1.225133e+00
0.7880	1.243380e+00
0.7890	1.261847e+00
0.7900	1.280535e+00
0.7910	1.299447e+00
0.7920	1.318585e+00
0.7930	1.337949e+00
0.7940	1.357542e+00
0.7950	1.377366e+00
0.7960	1.397422e+00
0.7970	1.417711e+00
0.7980	1.438236e+00
0.7990	1.458999e+00
0.8000	1.480000e+00
0.8010	1.501242e+00
0.8020	1.522729e+00
0.8030	1.544463e+00
0.8040	1.566449e+00
0.8050	1.588689e+00
0.8060	1.611188e+00
0.8070	1.633948e+00
0.8080	1.656974e+00
0.8090	1.680268e+00
0.8100	1.703835e+00
0.8110	1.727677e+00
0.8120	1.751799e+00
0.8130	1.776204e+00
0.8140	1.800894e+00
0.8150	1.825875e+00
0.8160	1.851149e+00
0.8170	1.876720e+00
0.8180	1.902591e+00
0.8190	1.928765e+00
0.8200	1.955248e+00
0.8210	1.982041e+00
0.8220	2.009148e+00
0.8230	2.036573e+00
0.8240	2.064320e+00
0.8250	2.092391e+00
0.8260	2.120791e+00
0.8270	2.149522e+00
0.8280	2.178589e+00
0.8290	2.207995e+00
0.8300	2.237743e+00
0.8310	2.267837e+00
0.8320	2.298280e+00
0.8330	2.329076e+00
0.8340	2.360229e+00
0.8350	2.391742e+00
0.8360	2.423617e+00
0.8370	2.455860e+00
0.8380	2.488474e+00
0.8390	2.521461e+00
0.8400	2.554825e+00
0.8410	2.588571e+00
0.8420	2.622701e+00
0.8430	2.657219e+00
0.8440	2.692128e+00
0.8450	2.727432e+00
0.8460	2.763135e+00
0.8470	2.799239e+00
0.8480	2.835749e+00
0.8490	2.872668e+00
0.8500	2.910000e+00
0.8510	2.947747e+00
0.8520	2.985914e+00
0.8530	3.024504e+00
0.8540	3.063521e+00
0.8550	3.102967e+00
0.8560	3.142847e+00
0.8570	3.183164e+00
0.8580	3.223922e+00
0.8590	3.265123e+00
0.8600	3.306772e+00
0.8610	3.348873e+00
0.8620	3.391427e+00
0.8630	3.434440e+00
0.8640	3.477914e+00
0.8650	3.521854e+00
0.8660	3.566262e+00
0.8670	3.611142e+00
0.8680	3.656498e+00
0.8690	3.702333e+00
0.8700	3.748650e+00
0.8710	3.795454e+00
0.8720	3.842747e+00
0.8730	3.890534e+00
0.8740	3.938817e+00
0.8750	3.987600e+00
0.8760	4.036887e+00
0.8770	4.086681e+00
0.8780	4.136986e+00
0.8790	4.187805e+00
0.8800	4.239142e+00
0.8810	4.291000e+00
0.8820	4.343383e+00
0.8830	4.396294e+00
0.8840	4.449736e+00
0.8850	4.503714e+00
0.8860	4.558231e+00
0.8870	4.613290e+00
0.8880	4.668895e+00
0.8890	4.725049e+00
0.8900	4.781756e+00
0.8910	4.839019e+00
0.8920	4.896842e+00
0.8930	4.955228e+00
0.8940	5.014181e+00
0.8950	5.073705e+00
0.8960	5.133802e+00
0.8970	5.194477e+00
0.8980	5.255732e+00
0.8990	5.317572e+00
0.9000	5.380000e+00
0.9010	5.443020e+00
0.9020	5.506637e+00
0.9030	5.570857e+00
0.9040	5.635687e+00
0.9050	5.701131e+00
0.9060	5.767198e+00
0.9070	5.833891e+00
0.9080	5.901218e+00
0.9090	5.969184e+00
0.9100	6.037795e+00
0.9110	6.107058e+00
0.9120	6.176978e+00
0.9130	6.247560e+00
0.9140	6.318812e+00
0.9150	6.390739e+00
0.9160	6.463348e+00
0.9170	6.536643e+00
0.9180	6.610631e+00
0.9190	6.685319e+00
0.9200	6.760711e+00
0.9210	6.836815e+00
0.9220	6.913635e+00
0.9230	6.991179e+00
0.9240	7.069451e+00
0.9250	7.148459e+00
0.9260	7.228207e+00
0.9270	7.308703e+00
0.9280	7.389951e+00
0.9290	7.471958e+00
0.9300	7.554730e+00
0.9310	7.638272e+00
0.9320	7.722592e+00
0.9330	7.807694e+00
0.9340	7.893586e+00
0.9350	7.980272e+00
0.9360	8.067758e+00
0.9370	8.156052e+00
0.9380	8.245158e+00
0.9390	8.335083e+00
0.9400	8.425832e+00
0.9410	8.517412e+00
0.9420	8.609829e+00
0.9430	8.703088e+00
0.9440	8.797196e+00
0.9450	8.892159e+00
0.9460	8.987982e+00
0.9470	9.084672e+00
0.9480	9.182234e+00
0.9490	9.280675e+00
0.9500	9.380000e+00
0.9510	9.480216e+00
0.9520	9.581327e+00
0.9530	9.683341e+00
0.9540	9.786262e+00
0.9550	9.890097e+00
0.9560	9.994850e+00
0.9570	1.010053e+01
0.9580	1.020714e+01
0.9590	1.031468e+01
0.9600	1.042317e+01
0.9610	1.053260e+01
0.9620	1.064299e+01
0.9630	1.075433e+01
0.9640	1.086664e+01
0.9650	1.097992e+01
0.9660	1.109417e+01
0.9670	1.120941e+01
0.9680	1.132563e+01
0.9690	1.144285e+01
0.9700	1.156106e+01
0.9710	1.168028e+01
0.9720	1.180051e+01
0.9730	1.192176e+01
0.9740	1.204402e+01
0.9750	1.216731e+01
0.9760	1.229164e+01
0.9770	1.241700e+01
0.9780	1.254341e+01
0.9790	1.267087e+01
0.9800	1.279938e+01
0.9810	1.292895e+01
0.9820	1.305959e+01
0.9830	1.319130e+01
0.9840	1.332410e+01
0.9850	1.345797e+01
0.9860	1.359293e+01
0.9870	1.372899e+01
0.9880	1.386615e+01
0.9890	1.400442e+01
0.9900	1.414380e+01
0.9910	1.428429e+01
0.9920	1.442591e+01
0.9930	1.456866e+01
0.9940	1.471255e+01
0.9950	1.485757e+01
0.9960	1.500374e+01
0.9970	1.515106e+01
0.9980	1.529954e+01
0.9990	1.544919e+01
1.0000	1.560000e+01
1.0010	1.575199e+01
1.0020	1.590516e+01
1.0030	1.605952e+01
1.0040	1.621508e+01
1.0050	1.637184e+01
1.0060	1.652982e+01
1.0070	1.668902e+01
1.0080	1.684945e+01
1.0090	1.701111e+01
1.0100	1.717402e+01
1.0110	1.733818e+01
1.0120	1.750360e+01
1.0130	1.767029e+01
1.0140	1.783826e+01
1.0150	1.800751e+01
1.0160	1.817805e+01
1.0170	1.834989e+01
1.0180	1.852303e+01
1.0190	1.869749e+01
1.0200	1.887327e+01
1.0210	1.905038e+01
1.0220	1.922883e+01
1.0230	1.940863e+01
1.0240	1.958978e+01
1.0250	1.977228e+01
1.0260	1.995616e+01
1.0270	2.014142e+01
1.0280	2.032805e+01
1.0290	2.051608e+01
1.0300	2.070551e+01
1.0310	2.089635e+01
1.0320	2.108860e+01
1.0330	2.128228e+01
1.0340	2.147738e+01
1.0350	2.167393e+01
1.0360	2.187192e+01
1.0370	2.207137e+01
1.0380	2.227227e+01
1.0390	2.247465e+01
1.0400	2.267850e+01
1.0410	2.288384e+01
1.0420	2.309067e+01
1.0430	2.329901e+01
1.0440	2.350885e+01
1.0450	2.372020e+01
1.0460	2.393308e+01
1.0470	2.414750e+01
1.0480	2.436345e+01
1.0490	2.458095e+01
1.0500	2.480000e+01
1.0510	2.502062e+01
1.0520	2.524281e+01
1.0530	2.546659e+01
1.0540	2.569197e+01
1.0550	2.591896e+01
1.0560	2.614757e+01
1.0570	2.637782e+01
1.0580	2.660972e+01
1.0590	2.684328e+01
1.0600	2.707851e+01
1.0610	2.731543e+01
1.0620	2.755404e+01
1.0630	2.779437e+01
1.0640	2.803641e+01
1.0650	2.828019e+01
1.0660	2.852572e+01
1.0670	2.877300e+01
1.0680	2.902206e+01
1.0690	2.927289e+01
1.0700	2.952553e+01
1.0710	2.977997e+01
1.0720	3.003623e+01
1.0730	3.029432e+01
1.0740	3.055426e+01
1.0750	3.081605e+01
1.0760	3.107971e+01
1.0770	3.134525e+01
1.0780	3.161269e+01
1.0790	3.188203e+01
1.0800	3.215329e+01
1.0810	3.242648e+01
1.0820	3.270161e+01
1.0830	3.297869e+01
1.0840	3.325774e+01
1.0850	3.353877e+01
1.0860	3.382179e+01
1.0870	3.410682e+01
1.0880	3.439386e+01
1.0890	3.468292e+01
1.0900	3.497403e+01
1.0910	3.526719e+01
1.0920	3.556242e+01
1.0930	3.585972e+01
1.0940	3.615911e+01
1.0950	3.646060e+01
1.0960	3.676420e+01
1.0970	3.706993e+01
1.0980	3.737780e+01
1.0990	3.768782e+01
1.1000	3.800000e+01
1.1010	3.831435e+01
1.1020	3.863089e+01
1.1030	3.894961e+01
1.1040	3.927052e+01
1.1050	3.959363e+01
1.1060	3.991894e+01
1.1070	4.024646e+01
1.1080	4.057620e+01
1.1090	4.090816e+01
1.1100	4.124234e+01
1.1110	4.157875e+01
1.1120	4.191740e+01
1.1130	4.225829e+01
1.1140	4.260144e+01
1.1150	4.294683e+01
1.1160	4.329449e+01
1.1170	4.364441e+01
1.1180	4.399660e+01
1.1190	4.435107e+01
1.1200	4.470782e+01
1.1210	4.506686e+01
1.1220	4.542820e+01
1.1230	4.579183e+01
1.1240	4.615777e+01
1.1250	4.652602e+01
1.1260	4.689659e+01
1.1270	4.726948e+01
1.1280	4.764469e+01
1.1290	4.802225e+01
1.1300	4.840214e+01
1.1310	4.878437e+01
1.1320	4.916896e+01
1.1330	4.955590e+01
1.1340	4.994521e+01
1.1350	5.033688e+01
1.1360	5.073093e+01
1.1370	5.112736e+01
1.1380	5.152617e+01
1.1390	5.192737e+01
1.1400	5.233097e+01
1.1410	5.273697e+01
1.1420	5.314538e+01
1.1430	5.355620e+01
1.1440	5.396944e+01
1.1450	5.438510e+01
1.1460	5.480320e+01
1.1470	5.522373e+01
1.1480	5.564670e+01
1.1490	5.607213e+01
1.1500	5.650000e+01
1.1510	5.693034e+01
1.1520	5.736315e+01
1.1530	5.779847e+01
1.1540	5.823632e+01
1.1550	5.867672e+01
1.1560	5.911969e+01
1.1570	5.956525e+01
1.1580	6.001344e+01
1.1590	6.046426e+01
1.1600	6.091774e+01
1.1610	6.137391e+01
1.1620	6.183278e+01
1.1630	6.229439e+01
1.1640	6.275875e+01
1.1650	6.322589e+01
1.1660	6.369582e+01
1.1670	6.416857e+01
1.1680	6.464417e+01
1.1690	6.512263e+01
1.1700	6.560399e+01
1.1710	6.608825e+01
1.1720	6.657545e+01
1.1730	6.706560e+01
1.1740	6.755874e+01
1.1750	6.805487e+01
1.1760	6.855403e+01
1.1770	6.905624e+01
1.1780	6.956151e+01
1.1790	7.006988e+01
1.1800	7.058136e+01
1.1810	7.109599e+01
1.1820	7.161377e+01
1.1830	7.213473e+01
1.1840	7.265890e+01
1.1850	7.318630e+01
1.1860	7.371694e+01
1.1870	7.425087e+01
1.1880	7.478808e+01
1.1890	7.532862e+01
1.1900	7.587249e+01
1.1910	7.641974e+01
1.1920	7.697036e+01
1.1930	7.752440e+01
1.1940	7.808186e+01
1.1950	7.864279e+01
1.1960	7.920719e+01
1.1970	7.977508e+01
1.1980	8.034650e+01
1.1990	8.092147e+01
1.2000	8.150000e+01
1.2010	8.208212e+01
1.2020	8.266783e+01
1.2030	8.325712e+01
1.2040	8.385001e+01
1.2050	8.444649e+01
1.2060	8.504655e+01
1.2070	8.565021e+01
1.2080	8.625745e+01
1.2090	8.686828e+01
1.2100	8.748270e+01
1.2110	8.810071e+01
1.2120	8.872231e+01
1.2130	8.934749e+01
1.2140	8.997626e+01
1.2150	9.060862e+01
1.2160	9.124457e+01
1.2170	9.188411e+01
1.2180	9.252723e+01
1.2190	9.317393e+01
1.2200	9.382423e+01
1.2210	9.447811e+01
1.2220	9.513558e+01
1.2230	9.579663e+01
1.2240	9.646127e+01
1.2250	9.712950e+01
1.2260	9.780131e+01
1.2270	9.847670e+01
1.2280	9.915569e+01
1.2290	9.983825e+01
1.2300	1.005244e+02
1.2310	1.012141e+02
1.2320	1.019075e+02
1.2330	1.026044e+02
1.2340	1.033049e+02
1.2350	1.040089e+02
1.2360	1.047166e+02
1.2370	1.054278e+02
1.2380	1.061427e+02
1.2390	1.068611e+02
1.2400	1.075831e+02
1.2410	1.083086e+02
1.2420	1.090378e+02
1.2430	1.097705e+02
1.2440	1.105068e+02
1.2450	1.112467e+02
1.2460	1.119902e+02
1.2470	1.127373e+02
1.2480	1.134880e+02
1.2490	1.142422e+02
1.2500	1.150000e+02
1.2510	1.157614e+02
1.2520	1.165264e+02
1.2530	1.172950e+02
1.2540	1.180673e+02
1.2550	1.188433e+02
1.2560	1.196230e+02
1.2570	1.204065e+02
1.2580	1.211937e+02
1.2590	1.219846e+02
1.2600	1.227794e+02
1.2610	1.235781e+02
1.2620	1.243806e+02
1.2630	1.251870e+02
1.2640	1.259973e+02
1.2650	1.268116e+02
1.2660	1.276299e+02
1.2670	1.284521e+02
1.2680	1.292784e+02
1.2690	1.301087e+02
1.2700	1.309431e+02
1.2710	1.317816e+02
1.2720	1.326242e+02
1.2730	1.334710e+02
1.2740	1.343220e+02
1.2750	1.351771e+02
1.2760	1.360365e+02
1.2770	1.369002e+02
1.2780	1.377682e+02
1.2790	1.386404e+02
1.2800	1.395170e+02
1.2810	1.403980e+02
1.2820	1.412833e+02
1.2830	1.421731e+02
1.2840	1.430673e+02
1.2850	1.439660e+02
1.2860	1.448692e+02
1.2870	1.457768e+02
1.2880	1.466891e+02
1.2890	1.476059e+02
1.2900	1.485273e+02
1.2910	1.494533e+02
1.2920	1.503840e+02
1.2930	1.513194e+02
1.2940	1.522594e+02
1.2950	1.532042e+02
1.2960	1.541538e+02
1.2970	1.551081e+02
1.2980	1.560672e+02
1.2990	1.570312e+02
1.3000	1.580000e+02
1.3010	1.589737e+02
1.3020	1.599523e+02
1.3030	1.609358e+02
1.3040	1.619243e+02
1.3050	1.629177e+02
1.3060	1.639161e+02
1.3070	1.649194e+02
1.3080	1.659278e+02
1.3090	1.669411e+02
1.3100	1.679595e+02
1.3110	1.689829e+02
1.3120	1.700114e+02
1.3130	1.710450e+02
1.3140	1.720836e+02
1.3150	1.731274e+02
1.3160	1.741763e+02
1.3170	1.752303e+02
1.3180	1.762895e+02
1.3190	1.773539e+02
1.3200	1.784234e+02
1.3210	1.794981e+02
1.3220	1.805781e+02
1.3230	1.816633e+02
1.3240	1.827537e+02
1.3250	1.838494e+02
1.3260	1.849504e+02
1.3270	1.860567e+02
1.3280	1.871683e+02
1.3290	1.882852e+02
1.3300	1.894075e+02
1.3310	1.905352e+02
1.3320	1.916682e+02
1.3330	1.928066e+02
1.3340	1.939504e+02
1.3350	1.950996e+02
1.3360	1.962543e+02
1.3370	1.974145e+02
1.3380	1.985801e+02
1.3390	1.997512e+02
1.3400	2.009278e+02
1.3410	2.021099e+02
1.3420	2.032975e+02
1.3430	2.044908e+02
1.3440	2.056895e+02
1.3450	2.068939e+02
1.3460	2.081039e+02
1.3470	2.093194e+02
1.3480	2.105406e+02
1.3490	2.117675e+02
1.3500	2.130000e+02
1.3510	2.142382e+02
1.3520	2.154821e+02
1.3530	2.167316e+02
1.3540	2.179869e+02
1.3550	2.192479e+02
1.3560	2.205146e+02
1.3570	2.217870e+02
1.3580	2.230651e+02
1.3590	2.243489e+02
1.3600	2.256385e+02
1.3610	2.269338e+02
1.3620	2.282349e+02
1.3630	2.295418e+02
1.3640	2.308544e+02
1.3650	2.321727e+02
1.3660	2.334969e+02
1.3670	2.348268e+02
1.3680	2.361625e+02
1.3690	2.375040e+02
1.3700	2.388513e+02
1.3710	2.402044e+02
1.3720	2.415634e+02
1.3730	2.429281e+02
1.3740	2.442987e+02
1.3750	2.456751e+02
1.3760	2.470574e+02
1.3770	2.484455e+02
1.3780	2.498394e+02
1.3790	2.512392e+02
1.3800	2.526449e+02
1.3810	2.540564e+02
1.3820	2.554739e+02
1.3830	2.568972e+02
1.3840	2.583264e+02
1.3850	2.597615e+02
1.3860	2.612025e+02
1.3870	2.626494e+02
1.3880	2.641022e+02
1.3890	2.655609e+02
1.3900	2.670256e+02
1.3910	2.684962e+02
1.3920	2.699728e+02
1.3930	2.714553e+02
1.3940	2.729438e+02
1.3950	2.744382e+02
1.3960	2.759386e+02
1.3970	2.774450e+02
1.3980	2.789573e+02
1.3990	2.804757e+02
1.4000	2.820000e+02
1.4010	2.835303e+02
1.4020	2.850667e+02
1.4030	2.866092e+02
1.4040	2.881579e+02
1.4050	2.897128e+02
1.4060	2.912740e+02
1.4070	2.928415e+02
1.4080	2.944153e+02
1.4090	2.959956e+02
1.4100	2.975824e+02
1.4110	2.991758e+02
1.4120	3.007757e+02
1.4130	3.023823e+02
1.4140	3.039956e+02
1.4150	3.056157e+02
1.4160	3.072425e+02
1.4170	3.088763e+02
1.4180	3.105169e+02
1.4190	3.121646e+02
1.4200	3.138193e+02
1.4210	3.154811e+02
1.4220	3.171500e+02
1.4230	3.188261e+02
1.4240	3.205094e+02
1.4250	3.222001e+02
1.4260	3.238981e+02
1.4270	3.256036e+02
1.4280	3.273165e+02
1.4290	3.290369e+02
1.4300	3.307649e+02
1.4310	3.325006e+02
1.4320	3.342439e+02
1.4330	3.359950e+02
1.4340	3.377538e+02
1.4350	3.395205e+02
1.4360	3.412951e+02
1.4370	3.430777e+02
1.4380	3.448683e+02
1.4390	3.466669e+02
1.4400	3.484737e+02
1.4410	3.502887e+02
1.4420	3.521118e+02
1.4430	3.539433e+02
1.4440	3.557831e+02
1.4450	3.576313e+02
1.4460	3.594879e+02
1.4470	3.613530e+02
1.4480	3.632267e+02
1.4490	3.651090e+02
1.4500	3.670000e+02
1.4510	3.688997e+02
1.4520	3.708080e+02
1.4530	3.727250e+02
1.4540	3.746507e+02
1.4550	3.765849e+02
1.4560	3.785277e+02
1.4570	3.804790e+02
1.4580	3.824388e+02
1.4590	3.844071e+02
1.4600	3.863838e+02
1.4610	3.883689e+02
1.4620	3.903624e+02
1.4630	3.923642e+02
1.4640	3.943743e+02
1.4650	3.963927e+02
1.4660	3.984193e+02
1.4670	4.004541e+02
1.4680	4.024971e+02
1.4690	4.045483e+02
1.4700	4.066076e+02
1.4710	4.086749e+02
1.4720	4.107503e+02
1.4730	4.128337e+02
1.4740	4.149251e+02
1.4750	4.170245e+02
1.4760	4.191317e+02
1.4770	4.212469e+02
1.4780	4.233699e+02
1.4790	4.255008e+02
1.4800	4.276394e+02
1.4810	4.297858e+02
1.4820	4.319400e+02
1.4830	4.341018e+02
1.4840	4.362713e+02
1.4850	4.384485e+02
1.4860	4.406332e+02
1.4870	4.428255e+02
1.4880	4.450254e+02
1.4890	4.472327e+02
1.4900	4.494475e+02
1.4910	4.516698e+02
1.4920	4.538995e+02
1.4930	4.561366e+02
1.4940	4.583810e+02
1.4950	4.606327e+02
1.4960	4.628917e+02
1.4970	4.651580e+02
1.4980	4.674315e+02
1.4990	4.697122e+02
1.5000	4.720000e+02
1.5010	4.742950e+02
1.5020	4.765971e+02
1.5030	4.789066e+02
1.5040	4.812234e+02
1.5050	4.835476e+02
1.5060	4.858793e+02
1.5070	4.882185e+02
1.5080	4.905654e+02
1.5090	4.929200e+02
1.5100	4.952824e+02
1.5110	4.976527e+02
1.5120	5.000309e+02
1.5130	5.024170e+02
1.5140	5.048113e+02
1.5150	5.072137e+02
1.5160	5.096243e+02
1.5170	5.120432e+02
1.5180	5.144705e+02
1.5190	5.169063e+02
1.5200	5.193505e+02
1.5210	5.218033e+02
1.5220	5.242648e+02
1.5230	5.267351e+02
1.5240	5.292141e+02
1.5250	5.317020e+02
1.5260	5.341989e+02
1.5270	5.367048e+02
1.5280	5.392198e+02
1.5290	5.417439e+02
1.5300	5.442774e+02
1.5310	5.468201e+02
1.5320	5.493722e+02
1.5330	5.519338e+02
1.5340	5.545049e+02
1.5350	5.570857e+02
1.5360	5.596761e+02
1.5370	5.622763e+02
1.5380	5.648863e+02
1.5390	5.675062e+02
1.5400	5.701361e+02
1.5410	5.727761e+02
1.5420	5.754262e+02
1.5430	5.780864e+02
1.5440	5.807570e+02
1.5450	5.834379e+02
1.5460	5.861292e+02
1.5470	5.888310e+02
1.5480	5.915433e+02
1.5490	5.942663e+02
1.5500	5.970000e+02
1.5510	5.997445e+02
1.5520	6.024997e+02
1.5530	6.052657e+02
1.5540	6.080424e+02
1.5550	6.108297e+02
1.5560	6.136278e+02
1.5570	6.164365e+02
1.5580	6.192559e+02
1.5590	6.220859e+02
1.5600	6.249265e+02
1.5610	6.277776e+02
1.5620	6.306393e+02
1.5630	6.335116e+02
1.5640	6.363943e+02
1.5650	6.392876e+02
1.5660	6.421913e+02
1.5670	6.451054e+02
1.5680	6.480300e+02
1.5690	6.509650e+02
1.5700	6.539104e+02
1.5710	6.568662e+02
1.5720	6.598323e+02
1.5730	6.628087e+02
1.5740	6.657955e+02
1.5750	6.687925e+02
1.5760	6.717998e+02
1.5770	6.748173e+02
1.5780	6.778451e+02
1.5790	6.808830e+02
1.5800	6.839312e+02
1.5810	6.869895e+02
1.5820	6.900579e+02
1.5830	6.931365e+02
1.5840	6.962251e+02
1.5850	6.993238e+02
1.5860	7.024326e+02
1.5870	7.055515e+02
1.5880	7.086803e+02
1.5890	7.118191e+02
1.5900	7.149679e+02
1.5910	7.181267e+02
1.5920	7.212954e+02
1.5930	7.244740e+02
1.5940	7.276625e+02
1.5950	7.308609e+02
1.5960	7.340691e+02
1.5970	7.372871e+02
1.5980	7.405150e+02
1.5990	7.437526e+02
1.6000	7.470000e+02
1.6010	7.502572e+02
1.6020	7.535241e+02
1.6030	7.568010e+02
1.6040	7.600877e+02
1.6050	7.633844e+02
1.6060	7.666912e+02
1.6070	7.700080e+02
1.6080	7.733350e+02
1.6090	7.766722e+02
1.6100	7.800197e+02
1.6110	7.833775e+02
1.6120	7.867457e+02
1.6130	7.901243e+02
1.6140	7.935134e+02
1.6150	7.969131e+02
1.6160	8.003234e+02
1.6170	8.037443e+02
1.6180	8.071760e+02
1.6190	8.106185e+02
1.6200	8.140718e+02
1.6210	8.175360e+02
1.6220	8.210112e+02
1.6230	8.244974e+02
1.6240	8.279946e+02
1.6250	8.315030e+02
1.6260	8.350226e+02
1.6270	8.385534e+02
1.6280	8.420956e+02
1.6290	8.456491e+02
1.6300	8.492140e+02
1.6310	8.527904e+02
1.6320	8.563783e+02
1.6330	8.599779e+02
1.6340	8.635891e+02
1.6350	8.672120e+02
1.6360	8.708466e+02
1.6370	8.744931e+02
1.6380	8.781515e+02
1.6390	8.818218e+02
1.6400	8.855041e+02
1.6410	8.891985e+02
1.6420	8.929050e+02
1.6430	8.966237e+02
1.6440	9.003546e+02
1.6450	9.040977e+02
1.6460	9.078533e+02
1.6470	9.116212e+02
1.6480	9.154016e+02
1.6490	9.191945e+02
1.6500	9.230000e+02
1.6510	9.268181e+02
1.6520	9.306489e+02
1.6530	9.344924e+02
1.6540	9.383486e+02
1.6550	9.422176e+02
1.6560	9.460993e+02
1.6570	9.499938e+02
1.6580	9.539012e+02
1.6590	9.578215e+02
1.6600	9.617547e+02
1.6610	9.657008e+02
1.6620	9.696598e+02
1.6630	9.736319e+02
1.6640	9.776170e+02
1.6650	9.816151e+02
1.6660	9.856263e+02
1.6670	9.896506e+02
1.6680	9.936880e+02
1.6690	9.977386e+02
1.6700	1.001802e+03
1.6710	1.005879e+03
1.6720	1.009970e+03
1.6730	1.014073e+03
1.6740	1.018190e+03
1.6750	1.022320e+03
1.6760	1.026464e+03
1.6770	1.030621e+03
1.6780	1.034792e+03
1.6790	1.038975e+03
1.6800	1.043173e+03
1.6810	1.047384e+03
1.6820	1.051608e+03
1.6830	1.055846e+03
1.6840	1.060098e+03
1.6850	1.064363e+03
1.6860	1.068642e+03
1.6870	1.072935e+03
1.6880	1.077241e+03
1.6890	1.081562e+03
1.6900	1.085896e+03
1.6910	1.090243e+03
1.6920	1.094605e+03
1.6930	1.098980e+03
1.6940	1.103370e+03
1.6950	1.107773e+03
1.6960	1.112191e+03
1.6970	1.116622e+03
1.6980	1.121067e+03
1.6990	1.125527e+03
1.7000	1.130000e+03
1.7010	1.134488e+03
1.7020	1.138989e+03
1.7030	1.143505e+03
1.7040	1.148034e+03
1.7050	1.152577e+03
1.7060	1.157134e+03
1.7070	1.161705e+03
1.7080	1.166289e+03
1.7090	1.170887e+03
1.7100	1.175498e+03
1.7110	1.180122e+03
1.7120	1.184759e+03
1.7130	1.189410e+03
1.7140	1.194074e+03
1.7150	1.198751e+03
1.7160	1.203440e+03
1.7170	1.208143e+03
1.7180	1.212858e+03
1.7190	1.217586e+03
1.7200	1.222326e+03
1.7210	1.227079e+03
1.7220	1.231845e+03
1.7230	1.236623e+03
1.7240	1.241413e+03
1.7250	1.246215e+03
1.7260	1.251029e+03
1.7270	1.255856e+03
1.7280	1.260694e+03
1.7290	1.265545e+03
1.7300	1.270407e+03
1.7310	1.275280e+03
1.7320	1.280166e+03
1.7330	1.285063e+03
1.7340	1.289971e+03
1.7350	1.294891e+03
1.7360	1.299822e+03
1.7370	1.304764e+03
1.7380	1.309718e+03
1.7390	1.314682e+03
1.7400	1.319658e+03
1.7410	1.324644e+03
1.7420	1.329641e+03
1.7430	1.334650e+03
1.7440	1.339668e+03
1.7450	1.344698e+03
1.7460	1.349737e+03
1.7470	1.354788e+03
1.7480	1.359848e+03
1.7490	1.364919e+03
1.7500	1.370000e+03
1.7510	1.375091e+03
1.7520	1.380193e+03
1.7530	1.385304e+03
1.7540	1.390427e+03
1.7550	1.395560e+03
1.7560	1.400704e+03
1.7570	1.405859e+03
1.7580	1.411025e+03
1.7590	1.416202e+03
1.7600	1.421391e+03
1.7610	1.426591e+03
1.7620	1.431803e+03
1.7630	1.437027e+03
1.7640	1.442263e+03
1.7650	1.447511e+03
1.7660	1.452772e+03
1.7670	1.458045e+03
1.7680	1.463330e+03
1.7690	1.468629e+03
1.7700	1.473940e+03
1.7710	1.479264e+03
1.7720	1.484601e+03
1.7730	1.489952e+03
1.7740	1.495316e+03
1.7750	1.500694e+03
1.7760	1.506086e+03
1.7770	1.511491e+03
1.7780	1.516911e+03
1.7790	1.522345e+03
1.7800	1.527793e+03
1.7810	1.533256e+03
1.7820	1.538733e+03
1.7830	1.544225e+03
1.7840	1.549732e+03
1.7850	1.555255e+03
1.7860	1.560792e+03
1.7870	1.566345e+03
1.7880	1.571913e+03
1.7890	1.577498e+03
1.7900	1.583097e+03
1.7910	1.588713e+03
1.7920	1.594345e+03
1.7930	1.599994e+03
1.7940	1.605658e+03
1.7950	1.611340e+03
1.7960	1.617038e+03
1.7970	1.622753e+03
1.7980	1.628485e+03
1.7990	1.634234e+03
1.8000	1.640000e+03
1.8010	1.645784e+03
1.8020	1.651585e+03
1.8030	1.657404e+03
1.8040	1.663239e+03
1.8050	1.669093e+03
1.8060	1.674963e+03
1.8070	1.680851e+03
1.8080	1.686756e+03
1.8090	1.692679e+03
1.8100	1.698618e+03
1.8110	1.704575e+03
1.8120	1.710549e+03
1.8130	1.716540e+03
1.8140	1.722548e+03
1.8150	1.728573e+03
1.8160	1.734616e+03
1.8170	1.740675e+03
1.8180	1.746751e+03
1.8190	1.752844e+03
1.8200	1.758955e+03
1.8210	1.765082e+03
1.8220	1.771226e+03
1.8230	1.777386e+03
1.8240	1.783564e+03
1.8250	1.789758e+03
1.8260	1.795970e+03
1.8270	1.802198e+03
1.8280	1.808442e+03
1.8290	1.814704e+03
1.8300	1.820982e+03
1.8310	1.827276e+03
1.8320	1.833588e+03
1.8330	1.839915e+03
1.8340	1.846260e+03
1.8350	1.852621e+03
1.8360	1.858998e+03
1.8370	1.865392e+03
1.8380	1.871802e+03
1.8390	1.878229e+03
1.8400	1.884672e+03
1.8410	1.891132e+03
1.8420	1.897608e+03
1.8430	1.904100e+03
1.8440	1.910609e+03
1.8450	1.917133e+03
1.8460	1.923674e+03
1.8470	1.930231e+03
1.8480	1.936805e+03
1.8490	1.943394e+03
1.8500	1.950000e+03
1.8510	1.956622e+03
1.8520	1.963260e+03
1.8530	1.969913e+03
1.8540	1.976583e+03
1.8550	1.983269e+03
1.8560	1.989971e+03
1.8570	1.996688e+03
1.8580	2.003421e+03
1.8590	2.010170e+03
1.8600	2.016935e+03
1.8610	2.023716e+03
1.8620	2.030512e+03
1.8630	2.037324e+03
1.8640	2.044152e+03
1.8650	2.050995e+03
1.8660	2.057853e+03
1.8670	2.064727e+03
1.8680	2.071617e+03
1.8690	2.078521e+03
1.8700	2.085442e+03
1.8710	2.092377e+03
1.8720	2.099328e+03
1.8730	2.106294e+03
1.8740	2.113275e+03
1.8750	2.120272e+03
1.8760	2.127284e+03
1.8770	2.134310e+03
1.8780	2.141352e+03
1.8790	2.148409e+03
1.8800	2.155480e+03
1.8810	2.162567e+03
1.8820	2.169669e+03
1.8830	2.176785e+03
1.8840	2.183916e+03
1.8850	2.191062e+03
1.8860	2.198223e+03
1.8870	2.205399e+03
1.8880	2.212589e+03
1.8890	2.219793e+03
1.8900	2.227013e+03
1.8910	2.234247e+03
1.8920	2.241495e+03
1.8930	2.248758e+03
1.8940	2.256035e+03
1.8950	2.263327e+03
1.8960	2.270633e+03
1.8970	2.277953e+03
1.8980	2.285288e+03
1.8990	2.292637e+03
1.9000	2.300000e+03
1.9010	2.307377e+03
1.9020	2.314769e+03
1.9030	2.322175e+03
1.9040	2.329596e+03
1.9050	2.337032e+03
1.9060	2.344483e+03
1.9070	2.351949e+03
1.9080	2.359430e+03
1.9090	2.366927e+03
1.9100	2.374440e+03
1.9110	2.381969e+03
1.9120	2.389514e+03
1.9130	2.397076e+03
1.9140	2.404654e+03
1.9150	2.412248e+03
1.9160	2.419860e+03
1.9170	2.427488e+03
1.9180	2.435134e+03
1.9190	2.442798e+03
1.9200	2.450479e+03
1.9210	2.458177e+03
1.9220	2.465894e+03
1.9230	2.473629e+03
1.9240	2.481382e+03
1.9250	2.489154e+03
1.9260	2.496944e+03
1.9270	2.504754e+03
1.9280	2.512582e+03
1.9290	2.520430e+03
1.9300	2.528297e+03
1.9310	2.536183e+03
1.9320	2.544090e+03
1.9330	2.552016e+03
1.9340	2.559963e+03
1.9350	2.567930e+03
1.9360	2.575918e+03
1.9370	2.583926e+03
1.9380	2.591955e+03
1.9390	2.600005e+03
1.9400	2.608077e+03
1.9410	2.616169e+03
1.9420	2.624284e+03
1.9430	2.632420e+03
1.9440	2.640579e+03
1.9450	2.648759e+03
1.9460	2.656962e+03
1.9470	2.665187e+03
1.9480	2.673435e+03
1.9490	2.681706e+03
1.9500	2.690000e+03
1.9510	2.698317e+03
1.9520	2.706657e+03
1.9530	2.715020e+03
1.9540	2.723406e+03
1.9550	2.731814e+03
1.9560	2.740245e+03
1.9570	2.748697e+03
1.9580	2.757171e+03
1.9590	2.765667e+03
1.9600	2.774184e+03
1.9610	2.782722e+03
1.9620	2.791281e+03
1.9630	2.799861e+03
1.9640	2.808462e+03
1.9650	2.817082e+03
1.9660	2.825723e+03
1.9670	2.834384e+03
1.9680	2.843065e+03
1.9690	2.851765e+03
1.9700	2.860484e+03
1.9710	2.869223e+03
1.9720	2.877980e+03
1.9730	2.886756e+03
1.9740	2.895550e+03
1.9750	2.904363e+03
1.9760	2.913194e+03
1.9770	2.922042e+03
1.9780	2.930908e+03
1.9790	2.939792e+03
1.9800	2.948693e+03
1.9810	2.957611e+03
1.9820	2.966545e+03
1.9830	2.975496e+03
1.9840	2.984464e+03
1.9850	2.993447e+03
1.9860	3.002447e+03
1.9870	3.011462e+03
1.9880	3.020493e+03
1.9890	3.029540e+03
1.9900	3.038601e+03
1.9910	3.047677e+03
1.9920	3.056768e+03
1.9930	3.065874e+03
1.9940	3.074993e+03
1.9950	3.084127e+03
1.9960	3.093275e+03
1.9970	3.102436e+03
1.9980	3.111611e+03
1.9990	3.120799e+03
2.0000	3.130000e+03
2.0010	3.139214e+03
2.0020	3.148441e+03
2.0030	3.157681e+03
2.0040	3.166934e+03
2.0050	3.176201e+03
2.0060	3.185482e+03
2.0070	3.194777e+03
2.0080	3.204085e+03
2.0090	3.213408e+03
2.0100	3.222745e+03
2.0110	3.232097e+03
2.0120	3.241463e+03
2.0130	3.250844e+03
2.0140	3.260241e+03
2.0150	3.269652e+03
2.0160	3.279079e+03
2.0170	3.288522e+03
2.0180	3.297980e+03
2.0190	3.307455e+03
2.0200	3.316945e+03
2.0210	3.326452e+03
2.0220	3.335975e+03
2.0230	3.345514e+03
2.0240	3.355071e+03
2.0250	3.364644e+03
2.0260	3.374235e+03
2.0270	3.383843e+03
2.0280	3.393468e+03
2.0290	3.403111e+03
2.0300	3.412772e+03
2.0310	3.422451e+03
2.0320	3.432148e+03
2.0330	3.441864e+03
2.0340	3.451598e+03
2.0350	3.461350e+03
2.0360	3.471122e+03
2.0370	3.480912e+03
2.0380	3.490722e+03
2.0390	3.500551e+03
2.0400	3.510400e+03
2.0410	3.520268e+03
2.0420	3.530157e+03
2.0430	3.540065e+03
2.0440	3.549994e+03
2.0450	3.559943e+03
2.0460	3.569912e+03
2.0470	3.579903e+03
2.0480	3.589914e+03
2.0490	3.599946e+03
2.0500	3.610000e+03
2.0510	3.620075e+03
2.0520	3.630172e+03
2.0530	3.640290e+03
2.0540	3.650429e+03
2.0550	3.660590e+03
2.0560	3.670773e+03
2.0570	3.680976e+03
2.0580	3.691202e+03
2.0590	3.701448e+03
2.0600	3.711716e+03
2.0610	3.722006e+03
2.0620	3.732317e+03
2.0630	3.742649e+03
2.0640	3.753003e+03
2.0650	3.763379e+03
2.0660	3.773775e+03
2.0670	3.784193e+03
2.0680	3.794633e+03
2.0690	3.805094e+03
2.0700	3.815576e+03
2.0710	3.826080e+03
2.0720	3.836605e+03
2.0730	3.847152e+03
2.0740	3.857720e+03
2.0750	3.868310e+03
2.0760	3.878920e+03
2.0770	3.889553e+03
2.0780	3.900206e+03
2.0790	3.910882e+03
2.0800	3.921578e+03
2.0810	3.932296e+03
2.0820	3.943035e+03
2.0830	3.953796e+03
2.0840	3.964578e+03
2.0850	3.975382e+03
2.0860	3.986206e+03
2.0870	3.997053e+03
2.0880	4.007920e+03
2.0890	4.018809e+03
2.0900	4.029720e+03
2.0910	4.040652e+03
2.0920	4.051605e+03
2.0930	4.062579e+03
2.0940	4.073575e+03
2.0950	4.084593e+03
2.0960	4.095631e+03
2.0970	4.106692e+03
2.0980	4.117773e+03
2.0990	4.128876e+03
2.1000	4.140000e+03
2.1010	4.151146e+03
2.1020	4.162312e+03
2.1030	4.173500e+03
2.1040	4.184709e+03
2.1050	4.195938e+03
2.1060	4.207188e+03
2.1070	4.218458e+03
2.1080	4.229749e+03
2.1090	4.241059e+03
2.1100	4.252389e+03
2.1110	4.263740e+03
2.1120	4.275109e+03
2.1130	4.286498e+03
2.1140	4.297906e+03
2.1150	4.309334e+03
2.1160	4.320780e+03
2.1170	4.332245e+03
2.1180	4.343728e+03
2.1190	4.355230e+03
2.1200	4.366750e+03
2.1210	4.378288e+03
2.1220	4.389844e+03
2.1230	4.401418e+03
2.1240	4.413009e+03
2.1250	4.424617e+03
2.1260	4.436243e+03
2.1270	4.447886e+03
2.1280	4.459546e+03
2.1290	4.471223e+03
2.1300	4.482916e+03
2.1310	4.494625e+03
2.1320	4.506351e+03
2.1330	4.518093e+03
2.1340	4.529850e+03
2.1350	4.541624e+03
2.1360	4.553413e+03
2.1370	4.565217e+03
2.1380	4.577037e+03
2.1390	4.588871e+03
2.1400	4.600721e+03
2.1410	4.612585e+03
2.1420	4.624464e+03
2.1430	4.636357e+03
2.1440	4.648265e+03
2.1450	4.660187e+03
2.1460	4.672122e+03
2.1470	4.684071e+03
2.1480	4.696034e+03
2.1490	4.708010e+03
2.1500	4.720000e+03
2.1510	4.732003e+03
2.1520	4.744019e+03
2.1530	4.756048e+03
2.1540	4.768091e+03
2.1550	4.780148e+03
2.1560	4.792219e+03
2.1570	4.804304e+03
2.1580	4.816403e+03
2.1590	4.828517e+03
2.1600	4.840646e+03
2.1610	4.852789e+03
2.1620	4.864948e+03
2.1630	4.877122e+03
2.1640	4.889312e+03
2.1650	4.901517e+03
2.1660	4.913738e+03
2.1670	4.925975e+03
2.1680	4.938228e+03
2.1690	4.950498e+03
2.1700	4.962784e+03
2.1710	4.975087e+03
2.1720	4.987407e+03
2.1730	4.999744e+03
2.1740	5.012099e+03
2.1750	5.024471e+03
2.1760	5.036860e+03
2.1770	5.049268e+03
2.1780	5.061693e+03
2.1790	5.074137e+03
2.1800	5.086600e+03
2.1810	5.099080e+03
2.1820	5.111580e+03
2.1830	5.124099e+03
2.1840	5.136637e+03
2.1850	5.149194e+03
2.1860	5.161771e+03
2.1870	5.174367e+03
2.1880	5.186983e+03
2.1890	5.199620e+03
2.1900	5.212277e+03
2.1910	5.224954e+03
2.1920	5.237652e+03
2.1930	5.250370e+03
2.1940	5.263110e+03
2.1950	5.275871e+03
2.1960	5.288653e+03
2.1970	5.301457e+03
2.1980	5.314283e+03
2.1990	5.327130e+03
2.2000	5.340000e+03
2.2010	5.352892e+03
2.2020	5.365806e+03
2.2030	5.378742e+03
2.2040	5.391701e+03
2.2050	5.404681e+03
2.2060	5.417683e+03
2.2070	5.430707e+03
2.2080	5.443752e+03
2.2090	5.456819e+03
2.2100	5.469908e+03
2.2110	5.483018e+03
2.2120	5.496149e+03
2.2130	5.509301e+03
2.2140	5.522475e+03
2.2150	5.535669e+03
2.2160	5.548885e+03
2.2170	5.562121e+03
2.2180	5.575378e+03
2.2190	5.588656e+03
2.2200	5.601954e+03
2.2210	5.615273e+03
2.2220	5.628612e+03
2.2230	5.641971e+03
2.2240	5.655350e+03
2.2250	5.668750e+03
2.2260	5.682170e+03
2.2270	5.695609e+03
2.2280	5.709068e+03
2.2290	5.722548e+03
2.2300	5.736046e+03
2.2310	5.749564e+03
2.2320	5.763102e+03
2.2330	5.776659e+03
2.2340	5.790235e+03
2.2350	5.803831e+03
2.2360	5.817445e+03
2.2370	5.831079e+03
2.2380	5.844731e+03
2.2390	5.858402e+03
2.2400	5.872092e+03
2.2410	5.885801e+03
2.2420	5.899528e+03
2.2430	5.913273e+03
2.2440	5.927037e+03
2.2450	5.940819e+03
2.2460	5.954619e+03
2.2470	5.968438e+03
2.2480	5.982274e+03
2.2490	5.996128e+03
2.2500	6.010000e+03
2.2510	6.023890e+03
2.2520	6.037797e+03
2.2530	6.051723e+03
2.2540	6.065667e+03
2.2550	6.079629e+03
2.2560	6.093610e+03
2.2570	6.107609e+03
2.2580	6.121628e+03
2.2590	6.135666e+03
2.2600	6.149723e+03
2.2610	6.163800e+03
2.2620	6.177896e+03
2.2630	6.192013e+03
2.2640	6.206149e+03
2.2650	6.220306e+03
2.2660	6.234483e+03
2.2670	6.248681e+03
2.2680	6.262900e+03
2.2690	6.277139e+03
2.2700	6.291400e+03
2.2710	6.305682e+03
2.2720	6.319986e+03
2.2730	6.334312e+03
2.2740	6.348659e+03
2.2750	6.363029e+03
2.2760	6.377421e+03
2.2770	6.391835e+03
2.2780	6.406273e+03
2.2790	6.420733e+03
2.2800	6.435216e+03
2.2810	6.449722e+03
2.2820	6.464252e+03
2.2830	6.478805e+03
2.2840	6.493382e+03
2.2850	6.507983e+03
2.2860	6.522608e+03
2.2870	6.537258e+03
2.2880	6.551932e+03
2.2890	6.566630e+03
2.2900	6.581354e+03
2.2910	6.596103e+03
2.2920	6.610877e+03
2.2930	6.625676e+03
2.2940	6.640501e+03
2.2950	6.655352e+03
2.2960	6.670229e+03
2.2970	6.685132e+03
2.2980	6.700061e+03
2.2990	6.715017e+03
2.3000	6.730000e+03
2.3010	6.745010e+03
2.3020	6.760046e+03
2.3030	6.775109e+03
2.3040	6.790198e+03
2.3050	6.805314e+03
2.3060	6.820455e+03
2.3070	6.835623e+03
2.3080	6.850816e+03
2.3090	6.866035e+03
2.3100	6.881280e+03
2.3110	6.896549e+03
2.3120	6.911844e+03
2.3130	6.927164e+03
2.3140	6.942508e+03
2.3150	6.957877e+03
2.3160	6.973271e+03
2.3170	6.988688e+03
2.3180	7.004130e+03
2.3190	7.019596e+03
2.3200	7.035085e+03
2.3210	7.050599e+03
2.3220	7.066135e+03
2.3230	7.081695e+03
2.3240	7.097278e+03
2.3250	7.112884e+03
2.3260	7.128512e+03
2.3270	7.144164e+03
2.3280	7.159837e+03
2.3290	7.175533e+03
2.3300	7.191251e+03
2.3310	7.206991e+03
2.3320	7.222753e+03
2.3330	7.238537e+03
2.3340	7.254341e+03
2.3350	7.270168e+03
2.3360	7.286015e+03
2.3370	7.301883e+03
2.3380	7.317772e+03
2.3390	7.333682e+03
2.3400	7.349612e+03
2.3410	7.365562e+03
2.3420	7.381532e+03
2.3430	7.397523e+03
2.3440	7.413533e+03
2.3450	7.429563e+03
2.3460	7.445612e+03
2.3470	7.461680e+03
2.3480	7.477768e+03
2.3490	7.493875e+03
2.3500	7.510000e+03
2.3510	7.526144e+03
2.3520	7.542307e+03
2.3530	7.558490e+03
2.3540	7.574693e+03
2.3550	7.590916e+03
2.3560	7.607161e+03
2.3570	7.623427e+03
2.3580	7.639715e+03
2.3590	7.656025e+03
2.3600	7.672358e+03
2.3610	7.688715e+03
2.3620	7.705096e+03
2.3630	7.721501e+03
2.3640	7.737930e+03
2.3650	7.754386e+03
2.3660	7.770867e+03
2.3670	7.787374e+03
2.3680	7.803908e+03
2.3690	7.820469e+03
2.3700	7.837058e+03
2.3710	7.853675e+03
2.3720	7.870321e+03
2.3730	7.886996e+03
2.3740	7.903701e+03
2.3750	7.920436e+03
2.3760	7.937201e+03
2.3770	7.953998e+03
2.3780	7.970826e+03
2.3790	7.987686e+03
2.3800	8.004579e+03
2.3810	8.021505e+03
2.3820	8.038464e+03
2.3830	8.055457e+03
2.3840	8.072484e+03
2.3850	8.089547e+03
2.3860	8.106645e+03
2.3870	8.123779e+03
2.3880	8.140949e+03
2.3890	8.158156e+03
2.3900	8.175400e+03
2.3910	8.192682e+03
2.3920	8.210002e+03
2.3930	8.227361e+03
2.3940	8.244760e+03
2.3950	8.262198e+03
2.3960	8.279676e+03
2.3970	8.297195e+03
2.3980	8.314755e+03
2.3990	8.332356e+03
2.4000	8.350000e+03
2.4010	8.367686e+03
2.4020	8.385413e+03
2.4030	8.403181e+03
2.4040	8.420987e+03
2.4050	8.438831e+03
2.4060	8.456711e+03
2.4070	8.474625e+03
2.4080	8.492574e+03
2.4090	8.510555e+03
2.4100	8.528567e+03
2.4110	8.546609e+03
2.4120	8.564680e+03
2.4130	8.582778e+03
2.4140	8.600902e+03
2.4150	8.619050e+03
2.4160	8.637223e+03
2.4170	8.655417e+03
2.4180	8.673633e+03
2.4190	8.691868e+03
2.4200	8.710122e+03
2.4210	8.728393e+03
2.4220	8.746679e+03
2.4230	8.764981e+03
2.4240	8.783295e+03
2.4250	8.801622e+03
2.4260	8.819960e+03
2.4270	8.838307e+03
2.4280	8.856662e+03
2.4290	8.875025e+03
2.4300	8.893393e+03
2.4310	8.911765e+03
2.4320	8.930141e+03
2.4330	8.948519e+03
2.4340	8.966897e+03
2.4350	8.985275e+03
2.4360	9.003651e+03
2.4370	9.022023e+03
2.4380	9.040391e+03
2.4390	9.058754e+03
2.4400	9.077109e+03
2.4410	9.095456e+03
2.4420	9.113794e+03
2.4430	9.132121e+03
2.4440	9.150436e+03
2.4450	9.168737e+03
2.4460	9.187024e+03
2.4470	9.205295e+03
2.4480	9.223549e+03
2.4490	9.241784e+03
2.4500	9.260000e+03
2.4510	9.278195e+03
2.4520	9.296372e+03
2.4530	9.314534e+03
2.4540	9.332683e+03
2.4550	9.350821e+03
2.4560	9.368952e+03
2.4570	9.387078e+03
2.4580	9.405202e+03
2.4590	9.423326e+03
2.4600	9.441453e+03
2.4610	9.459587e+03
2.4620	9.477729e+03
2.4630	9.495882e+03
2.4640	9.514049e+03
2.4650	9.532233e+03
2.4660	9.550436e+03
2.4670	9.568661e+03
2.4680	9.586911e+03
2.4690	9.605188e+03
2.4700	9.623495e+03
2.4710	9.641835e+03
2.4720	9.660210e+03
2.4730	9.678624e+03
2.4740	9.697078e+03
2.4750	9.715575e+03
2.4760	9.734119e+03
2.4770	9.752712e+03
2.4780	9.771356e+03
2.4790	9.790055e+03
2.4800	9.808810e+03
2.4810	9.827625e+03
2.4820	9.846502e+03
2.4830	9.865444e+03
2.4840	9.884454e+03
2.4850	9.903534e+03
2.4860	9.922687e+03
2.4870	9.941916e+03
2.4880	9.961223e+03
2.4890	9.980611e+03
2.4900	1.000008e+04
2.4910	1.001964e+04
2.4920	1.003929e+04
2.4930	1.005903e+04
2.4940	1.007886e+04
2.4950	1.009879e+04
2.4960	1.011882e+04
2.4970	1.013896e+04
2.4980	1.015920e+04
2.4990	1.017954e+04
2.5000	1.020000e+04
2.5010	1.022057e+04
2.5020	1.024125e+04
2.5030	1.026204e+04
2.5040	1.028293e+04
2.5050	1.030392e+04
2.5060	1.032500e+04
2.5070	1.034618e+04
2.5080	1.036746e+04
2.5090	1.038882e+04
2.5100	1.041026e+04
2.5110	1.043178e+04
2.5120	1.045339e+04
2.5130	1.047506e+04
2.5140	1.049681e+04
2.5150	1.051863e+04
2.5160	1.054051e+04
2.5170	1.056245e+04
2.5180	1.058445e+04
2.5190	1.060651e+04
2.5200	1.062862e+04
2.5210	1.065078e+04
2.5220	1.067298e+04
2.5230	1.069522e+04
2.5240	1.071751e+04
2.5250	1.073983e+04
2.5260	1.076218e+04
2.5270	1.078456e+04
2.5280	1.080697e+04
2.5290	1.082940e+04
2.5300	1.085185e+04
2.5310	1.087431e+04
2.5320	1.089679e+04
2.5330	1.091928e+04
2.5340	1.094178e+04
2.5350	1.096428e+04
2.5360	1.098678e+04
2.5370	1.100928e+04
2.5380	1.103177e+04
2.5390	1.105425e+04
2.5400	1.107672e+04
2.5410	1.109917e+04
2.5420	1.112160e+04
2.5430	1.114402e+04
2.5440	1.116640e+04
2.5450	1.118876e+04
2.5460	1.121108e+04
2.5470	1.123337e+04
2.5480	1.125563e+04
2.5490	1.127784e+04
2.5500	1.130000e+04
2.5510	1.132212e+04
2.5520	1.134419e+04
2.5530	1.136622e+04
2.5540	1.138821e+04
2.5550	1.141016e+04
2.5560	1.143207e+04
2.5570	1.145395e+04
2.5580	1.147581e+04
2.5590	1.149763e+04
2.5600	1.151943e+04
2.5610	1.154120e+04
2.5620	1.156296e+04
2.5630	1.158470e+04
2.5640	1.160642e+04
2.5650	1.162813e+04
2.5660	1.164983e+04
2.5670	1.167153e+04
2.5680	1.169322e+04
2.5690	1.171490e+04
2.5700	1.173659e+04
2.5710	1.175828e+04
2.5720	1.177998e+04
2.5730	1.180168e+04
2.5740	1.182339e+04
2.5750	1.184512e+04
2.5760	1.186686e+04
2.5770	1.188862e+04
2.5780	1.191041e+04
2.5790	1.193221e+04
2.5800	1.195404e+04
2.5810	1.197590e+04
2.5820	1.199779e+04
2.5830	1.201971e+04
2.5840	1.204167e+04
2.5850	1.206367e+04
2.5860	1.208571e+04
2.5870	1.210779e+04
2.5880	1.212992e+04
2.5890	1.215210e+04
2.5900	1.217433e+04
2.5910	1.219661e+04
2.5920	1.221895e+04
2.5930	1.224135e+04
2.5940	1.226381e+04
2.5950	1.228633e+04
2.5960	1.230892e+04
2.5970	1.233158e+04
2.5980	1.235431e+04
2.5990	1.237712e+04
2.6000	1.240000e+04
2.6010	1.242296e+04
2.6020	1.244600e+04
2.6030	1.246911e+04
2.6040	1.249230e+04
2.6050	1.251556e+04
2.6060	1.253888e+04
2.6070	1.256227e+04
2.6080	1.258573e+04
2.6090	1.260925e+04
2.6100	1.263283e+04
2.6110	1.265646e+04
2.6120	1.268015e+04
2.6130	1.270390e+04
2.6140	1.272769e+04
2.6150	1.275154e+04
2.6160	1.277543e+04
2.6170	1.279936e+04
2.6180	1.282334e+04
2.6190	1.284736e+04
2.6200	1.287142e+04
2.6210	1.289551e+04
2.6220	1.291963e+04
2.6230	1.294379e+04
2.6240	1.296798e+04
2.6250	1.299219e+04
2.6260	1.301643e+04
2.6270	1.304069e+04
2.6280	1.306497e+04
2.6290	1.308928e+04
2.6300	1.311359e+04
2.6310	1.313792e+04
2.6320	1.316227e+04
2.6330	1.318662e+04
2.6340	1.321098e+04
2.6350	1.323535e+04
2.6360	1.325971e+04
2.6370	1.328408e+04
2.6380	1.330845e+04
2.6390	1.333282e+04
2.6400	1.335718e+04
2.6410	1.338153e+04
2.6420	1.340587e+04
2.6430	1.343020e+04
2.6440	1.345452e+04
2.6450	1.347882e+04
2.6460	1.350310e+04
2.6470	1.352736e+04
2.6480	1.355160e+04
2.6490	1.357581e+04
2.6500	1.360000e+04
2.6510	1.362416e+04
2.6520	1.364829e+04
2.6530	1.367239e+04
2.6540	1.369646e+04
2.6550	1.372052e+04
2.6560	1.374455e+04
2.6570	1.376856e+04
2.6580	1.379254e+04
2.6590	1.381651e+04
2.6600	1.384047e+04
2.6610	1.386440e+04
2.6620	1.388833e+04
2.6630	1.391224e+04
2.6640	1.393613e+04
2.6650	1.396002e+04
2.6660	1.398390e+04
2.6670	1.400777e+04
2.6680	1.403163e+04
2.6690	1.405549e+04
2.6700	1.407935e+04
2.6710	1.410320e+04
2.6720	1.412705e+04
2.6730	1.415090e+04
2.6740	1.417476e+04
2.6750	1.419861e+04
2.6760	1.422247e+04
2.6770	1.424634e+04
2.6780	1.427022e+04
2.6790	1.429410e+04
2.6800	1.431799e+04
2.6810	1.434190e+04
2.6820	1.436581e+04
2.6830	1.438974e+04
2.6840	1.441369e+04
2.6850	1.443765e+04
2.6860	1.446163e+04
2.6870	1.448563e+04
2.6880	1.450965e+04
2.6890	1.453369e+04
2.6900	1.455776e+04
2.6910	1.458185e+04
2.6920	1.460596e+04
2.6930	1.463011e+04
2.6940	1.465428e+04
2.6950	1.467848e+04
2.6960	1.470272e+04
2.6970	1.472699e+04
2.6980	1.475129e+04
2.6990	1.477563e+04
2.7000	1.480000e+04
2.7010	1.482441e+04
2.7020	1.484886e+04
2.7030	1.487336e+04
2.7040	1.489790e+04
2.7050	1.492248e+04
2.7060	1.494710e+04
2.7070	1.497178e+04
2.7080	1.499650e+04
2.7090	1.502128e+04
2.7100	1.504611e+04
2.7110	1.507099e+04
2.7120	1.509592e+04
2.7130	1.512092e+04
2.7140	1.514597e+04
2.7150	1.517108e+04
2.7160	1.519626e+04
2.7170	1.522149e+04
2.7180	1.524680e+04
2.7190	1.527216e+04
2.7200	1.529760e+04
2.7210	1.532311e+04
2.7220	1.534868e+04
2.7230	1.537433e+04
2.7240	1.540006e+04
2.7250	1.542586e+04
2.7260	1.545173e+04
2.7270	1.547769e+04
2.7280	1.550372e+04
2.7290	1.552984e+04
2.7300	1.555604e+04
2.7310	1.558233e+04
2.7320	1.560870e+04
2.7330	1.563516e+04
2.7340	1.566171e+04
2.7350	1.568836e+04
2.7360	1.571509e+04
2.7370	1.574192e+04
2.7380	1.576884e+04
2.7390	1.579587e+04
2.7400	1.582299e+04
2.7410	1.585021e+04
2.7420	1.587754e+04
2.7430	1.590497e+04
2.7440	1.593250e+04
2.7450	1.596014e+04
2.7460	1.598789e+04
2.7470	1.601575e+04
2.7480	1.604372e+04
2.7490	1.607180e+04
2.7500	1.610000e+04
2.7510	1.612831e+04
2.7520	1.615674e+04
2.7530	1.618528e+04
2.7540	1.621392e+04
2.7550	1.624268e+04
2.7560	1.627153e+04
2.7570	1.630048e+04
2.7580	1.632953e+04
2.7590	1.635867e+04
2.7600	1.638791e+04
2.7610	1.641723e+04
2.7620	1.644664e+04
2.7630	1.647613e+04
2.7640	1.650570e+04
2.7650	1.653535e+04
2.7660	1.656507e+04
2.7670	1.659487e+04
2.7680	1.662473e+04
2.7690	1.665466e+04
2.7700	1.668465e+04
2.7710	1.671470e+04
2.7720	1.674481e+04
2.7730	1.677498e+04
2.7740	1.680520e+04
2.7750	1.683546e+04
2.7760	1.686578e+04
2.7770	1.689613e+04
2.7780	1.692653e+04
2.7790	1.695697e+04
2.7800	1.698744e+04
2.7810	1.701794e+04
2.7820	1.704848e+04
2.7830	1.707904e+04
2.7840	1.710962e+04
2.7850	1.714023e+04
2.7860	1.717085e+04
2.7870	1.720149e+04
2.7880	1.723215e+04
2.7890	1.726281e+04
2.7900	1.729348e+04
2.7910	1.732416e+04
2.7920	1.735484e+04
2.7930	1.738552e+04
2.7940	1.741619e+04
2.7950	1.744686e+04
2.7960	1.747752e+04
2.7970	1.750816e+04
2.7980	1.753879e+04
2.7990	1.756941e+04
2.8000	1.760000e+04
2.8010	1.763057e+04
2.8020	1.766112e+04
2.8030	1.769164e+04
2.8040	1.772214e+04
2.8050	1.775262e+04
2.8060	1.778308e+04
2.8070	1.781351e+04
2.8080	1.784391e+04
2.8090	1.787430e+04
2.8100	1.790466e+04
2.8110	1.793500e+04
2.8120	1.796531e+04
2.8130	1.799561e+04
2.8140	1.802588e+04
2.8150	1.805612e+04
2.8160	1.808634e+04
2.8170	1.811654e+04
2.8180	1.814672e+04
2.8190	1.817687e+04
2.8200	1.820700e+04
2.8210	1.823710e+04
2.8220	1.826719e+04
2.8230	1.829724e+04
2.8240	1.832728e+04
2.8250	1.835729e+04
2.8260	1.838728e+04
2.8270	1.841725e+04
2.8280	1.844719e+04
2.8290	1.847711e+04
2.8300	1.850700e+04
2.8310	1.853688e+04
2.8320	1.856673e+04
2.8330	1.859655e+04
2.8340	1.862635e+04
2.8350	1.865613e+04
2.8360	1.868589e+04
2.8370	1.871562e+04
2.8380	1.874533e+04
2.8390	1.877501e+04
2.8400	1.880467e+04
2.8410	1.883431e+04
2.8420	1.886393e+04
2.8430	1.889352e+04
2.8440	1.892309e+04
2.8450	1.895263e+04
2.8460	1.898215e+04
2.8470	1.901165e+04
2.8480	1.904112e+04
2.8490	1.907057e+04
2.8500	1.910000e+04
2.8510	1.912940e+04
2.8520	1.915879e+04
2.8530	1.918815e+04
2.8540	1.921750e+04
2.8550	1.924684e+04
2.8560	1.927617e+04
2.8570	1.930549e+04
2.8580	1.933481e+04
2.8590	1.936413e+04
2.8600	1.939345e+04
2.8610	1.942277e+04
2.8620	1.945210e+04
2.8630	1.948144e+04
2.8640	1.951080e+04
2.8650	1.954017e+04
2.8660	1.956956e+04
2.8670	1.959897e+04
2.8680	1.962840e+04
2.8690	1.965787e+04
2.8700	1.968736e+04
2.8710	1.971688e+04
2.8720	1.974644e+04
2.8730	1.977604e+04
2.8740	1.980568e+04
2.8750	1.983537e+04
2.8760	1.986510e+04
2.8770	1.989488e+04
2.8780	1.992471e+04
2.8790	1.995460e+04
2.8800	1.998454e+04
2.8810	2.001455e+04
2.8820	2.004462e+04
2.8830	2.007476e+04
2.8840	2.010497e+04
2.8850	2.013525e+04
2.8860	2.016560e+04
2.8870	2.019603e+04
2.8880	2.022654e+04
2.8890	2.025714e+04
2.8900	2.028782e+04
2.8910	2.031859e+04
2.8920	2.034945e+04
2.8930	2.038041e+04
2.8940	2.041147e+04
2.8950	2.044262e+04
2.8960	2.047388e+04
2.8970	2.050524e+04
2.8980	2.053672e+04
2.8990	2.056830e+04
2.9000	2.060000e+04
2.9010	2.063182e+04
2.9020	2.066375e+04
2.9030	2.069579e+04
2.9040	2.072795e+04
2.9050	2.076021e+04
2.9060	2.079259e+04
2.9070	2.082507e+04
2.9080	2.085766e+04
2.9090	2.089036e+04
2.9100	2.092315e+04
2.9110	2.095605e+04
2.9120	2.098904e+04
2.9130	2.102214e+04
2.9140	2.105532e+04
2.9150	2.108861e+04
2.9160	2.112198e+04
2.9170	2.115545e+04
2.9180	2.118900e+04
2.9190	2.122264e+04
2.9200	2.125637e+04
2.9210	2.129019e+04
2.9220	2.132408e+04
2.9230	2.135806e+04
2.9240	2.139211e+04
2.9250	2.142624e+04
2.9260	2.146045e+04
2.9270	2.149474e+04
2.9280	2.152909e+04
2.9290	2.156352e+04
2.9300	2.159802e+04
2.9310	2.163258e+04
2.9320	2.166721e+04
2.9330	2.170191e+04
2.9340	2.173667e+04
2.9350	2.177149e+04
2.9360	2.180636e+04
2.9370	2.184130e+04
2.9380	2.187629e+04
2.9390	2.191134e+04
2.9400	2.194644e+04
2.9410	2.198159e+04
2.9420	2.201680e+04
2.9430	2.205205e+04
2.9440	2.208734e+04
2.9450	2.212268e+04
2.9460	2.215807e+04
2.9470	2.219349e+04
2.9480	2.222896e+04
2.9490	2.226446e+04
2.9500	2.230000e+04
2.9510	2.233557e+04
2.9520	2.237118e+04
2.9530	2.240683e+04
2.9540	2.244250e+04
2.9550	2.247820e+04
2.9560	2.251394e+04
2.9570	2.254970e+04
2.9580	2.258549e+04
2.9590	2.262131e+04
2.9600	2.265715e+04
2.9610	2.269301e+04
2.9620	2.272891e+04
2.9630	2.276482e+04
2.9640	2.280075e+04
2.9650	2.283671e+04
2.9660	2.287268e+04
2.9670	2.290867e+04
2.9680	2.294468e+04
2.9690	2.298071e+04
2.9700	2.301675e+04
2.9710	2.305281e+04
2.9720	2.308888e+04
2.9730	2.312496e+04
2.9740	2.316105e+04
2.9750	2.319715e+04
2.9760	2.323327e+04
2.9770	2.326939e+04
2.9780	2.330551e+04
2.9790	2.334165e+04
2.9800	2.337778e+04
2.9810	2.341393e+04
2.9820	2.345007e+04
2.9830	2.348622e+04
2.9840	2.352236e+04
2.9850	2.355851e+04
2.9860	2.359466e+04
2.9870	2.363080e+04
2.9880	2.366694e+04
2.9890	2.370308e+04
2.9900	2.373921e+04
2.9910	2.377533e+04
2.9920	2.381145e+04
2.9930	2.384756e+04
2.9940	2.388366e+04
2.9950	2.391975e+04
2.9960	2.395583e+04
2.9970	2.399189e+04
2.9980	2.402794e+04
2.9990	2.406398e+04
3.0000	2.410000e+04
3.0010	2.413600e+04
3.0020	2.417199e+04
3.0030	2.420797e+04
3.0040	2.424393e+04
3.0050	2.427988e+04
3.0060	2.431581e+04
3.0070	2.435174e+04
3.0080	2.438765e+04
3.0090	2.442356e+04
3.0100	2.445946e+04
3.0110	2.449535e+04
3.0120	2.453123e+04
3.0130	2.456711e+04
3.0140	2.460299e+04
3.0150	2.463886e+04
3.0160	2.467473e+04
3.0170	2.471060e+04
3.0180	2.474647e+04
3.0190	2.478234e+04
3.0200	2.481822e+04
3.0210	2.485409e+04
3.0220	2.488997e+04
3.0230	2.492585e+04
3.0240	2.496174e+04
3.0250	2.499764e+04
3.0260	2.503354e+04
3.0270	2.506945e+04
3.0280	2.510537e+04
3.0290	2.514130e+04
3.0300	2.517725e+04
3.0310	2.521320e+04
3.0320	2.524917e+04
3.0330	2.528515e+04
3.0340	2.532115e+04
3.0350	2.535717e+04
3.0360	2.539320e+04
3.0370	2.542925e+04
3.0380	2.546532e+04
3.0390	2.550141e+04
3.0400	2.553752e+04
3.0410	2.557365e+04
3.0420	2.560981e+04
3.0430	2.564599e+04
3.0440	2.568219e+04
3.0450	2.571842e+04
3.0460	2.575468e+04
3.0470	2.579097e+04
3.0480	2.582728e+04
3.0490	2.586362e+04
3.0500	2.590000e+04
3.0510	2.593641e+04
3.0520	2.597285e+04
3.0530	2.600932e+04
3.0540	2.604584e+04
3.0550	2.608239e+04
3.0560	2.611899e+04
3.0570	2.615563e+04
3.0580	2.619231e+04
3.0590	2.622904e+04
3.0600	2.626582e+04
3.0610	2.630266e+04
3.0620	2.633954e+04
3.0630	2.637648e+04
3.0640	2.641348e+04
3.0650	2.645054e+04
3.0660	2.648766e+04
3.0670	2.652484e+04
3.0680	2.656209e+04
3.0690	2.659940e+04
3.0700	2.663678e+04
3.0710	2.667424e+04
3.0720	2.671176e+04
3.0730	2.674936e+04
3.0740	2.678704e+04
3.0750	2.682480e+04
3.0760	2.686264e+04
3.0770	2.690055e+04
3.0780	2.693856e+04
3.0790	2.697665e+04
3.0800	2.701483e+04
3.0810	2.705310e+04
3.0820	2.709146e+04
3.0830	2.712992e+04
3.0840	2.716847e+04
3.0850	2.720712e+04
3.0860	2.724587e+04
3.0870	2.728472e+04
3.0880	2.732368e+04
3.0890	2.736275e+04
3.0900	2.740192e+04
3.0910	2.744120e+04
3.0920	2.748059e+04
3.0930	2.752010e+04
3.0940	2.755972e+04
3.0950	2.759946e+04
3.0960	2.763932e+04
3.0970	2.767930e+04
3.0980	2.771941e+04
3.0990	2.775964e+04
3.1000	2.780000e+04
3.1010	2.784049e+04
3.1020	2.788110e+04
3.1030	2.792183e+04
3.1040	2.796269e+04
3.1050	2.800365e+04
3.1060	2.804473e+04
3.1070	2.808591e+04
3.1080	2.812719e+04
3.1090	2.816857e+04
3.1100	2.821004e+04
3.1110	2.825161e+04
3.1120	2.829326e+04
3.1130	2.833499e+04
3.1140	2.837679e+04
3.1150	2.841868e+04
3.1160	2.846063e+04
3.1170	2.850264e+04
3.1180	2.854472e+04
3.1190	2.858686e+04
3.1200	2.862905e+04
3.1210	2.867129e+04
3.1220	2.871358e+04
3.1230	2.875591e+04
3.1240	2.879827e+04
3.1250	2.884067e+04
3.1260	2.888310e+04
3.1270	2.892556e+04
3.1280	2.896803e+04
3.1290	2.901053e+04
3.1300	2.905304e+04
3.1310	2.909556e+04
3.1320	2.913808e+04
3.1330	2.918061e+04
3.1340	2.922313e+04
3.1350	2.926565e+04
3.1360	2.930816e+04
3.1370	2.935065e+04
3.1380	2.939313e+04
3.1390	2.943559e+04
3.1400	2.947802e+04
3.1410	2.952041e+04
3.1420	2.956278e+04
3.1430	2.960511e+04
3.1440	2.964739e+04
3.1450	2.968963e+04
3.1460	2.973182e+04
3.1470	2.977396e+04
3.1480	2.981603e+04
3.1490	2.985805e+04
3.1500	2.990000e+04
3.1510	2.994188e+04
3.1520	2.998370e+04
3.1530	3.002545e+04
3.1540	3.006715e+04
3.1550	3.010880e+04
3.1560	3.015040e+04
3.1570	3.019195e+04
3.1580	3.023347e+04
3.1590	3.027495e+04
3.1600	3.031640e+04
3.1610	3.035783e+04
3.1620	3.039923e+04
3.1630	3.044062e+04
3.1640	3.048199e+04
3.1650	3.052336e+04
3.1660	3.056472e+04
3.1670	3.060608e+04
3.1680	3.064745e+04
3.1690	3.068882e+04
3.1700	3.073021e+04
3.1710	3.077162e+04
3.1720	3.081305e+04
3.1730	3.085451e+04
3.1740	3.089599e+04
3.1750	3.093752e+04
3.1760	3.097908e+04
3.1770	3.102069e+04
3.1780	3.106235e+04
3.1790	3.110406e+04
3.1800	3.114582e+04
3.1810	3.118765e+04
3.1820	3.122955e+04
3.1830	3.127151e+04
3.1840	3.131355e+04
3.1850	3.135567e+04
3.1860	3.139788e+04
3.1870	3.144017e+04
3.1880	3.148256e+04
3.1890	3.152504e+04
3.1900	3.156762e+04
3.1910	3.161031e+04
3.1920	3.165311e+04
3.1930	3.169602e+04
3.1940	3.173906e+04
3.1950	3.178221e+04
3.1960	3.182550e+04
3.1970	3.186891e+04
3.1980	3.191247e+04
3.1990	3.195616e+04
3.2000	3.200000e+04
3.2010	3.204399e+04
3.2020	3.208812e+04
3.2030	3.213239e+04
3.2040	3.217681e+04
3.2050	3.222135e+04
3.2060	3.226603e+04
3.2070	3.231083e+04
3.2080	3.235576e+04
3.2090	3.240080e+04
3.2100	3.244595e+04
3.2110	3.249122e+04
3.2120	3.253659e+04
3.2130	3.258206e+04
3.2140	3.262764e+04
3.2150	3.267330e+04
3.2160	3.271906e+04
3.2170	3.276490e+04
3.2180	3.281082e+04
3.2190	3.285683e+04
3.2200	3.290290e+04
3.2210	3.294905e+04
3.2220	3.299526e+04
3.2230	3.304154e+04
3.2240	3.308787e+04
3.2250	3.313426e+04
3.2260	3.318070e+04
3.2270	3.322718e+04
3.2280	3.327371e+04
3.2290	3.332027e+04
3.2300	3.336687e+04
3.2310	3.341350e+04
3.2320	3.346016e+04
3.2330	3.350684e+04
3.2340	3.355354e+04
3.2350	3.360025e+04
3.2360	3.364698e+04
3.2370	3.369371e+04
3.2380	3.374044e+04
3.2390	3.378717e+04
3.2400	3.383390e+04
3.2410	3.388061e+04
3.2420	3.392732e+04
3.2430	3.397401e+04
3.2440	3.402067e+04
3.2450	3.406731e+04
3.2460	3.411392e+04
3.2470	3.416050e+04
3.2480	3.420704e+04
3.2490	3.425354e+04
3.2500	3.430000e+04
3.2510	3.434641e+04
3.2520	3.439277e+04
3.2530	3.443908e+04
3.2540	3.448536e+04
3.2550	3.453159e+04
3.2560	3.457778e+04
3.2570	3.462393e+04
3.2580	3.467005e+04
3.2590	3.471613e+04
3.2600	3.476219e+04
3.2610	3.480821e+04
3.2620	3.485421e+04
3.2630	3.490017e+04
3.2640	3.494612e+04
3.2650	3.499204e+04
3.2660	3.503794e+04
3.2670	3.508382e+04
3.2680	3.512969e+04
3.2690	3.517554e+04
3.2700	3.522138e+04
3.2710	3.526721e+04
3.2720	3.531303e+04
3.2730	3.535884e+04
3.2740	3.540465e+04
3.2750	3.545045e+04
3.2760	3.549625e+04
3.2770	3.554205e+04
3.2780	3.558786e+04
3.2790	3.563367e+04
3.2800	3.567948e+04
3.2810	3.572530e+04
3.2820	3.577114e+04
3.2830	3.581698e+04
3.2840	3.586284e+04
3.2850	3.590872e+04
3.2860	3.595461e+04
3.2870	3.600052e+04
3.2880	3.604645e+04
3.2890	3.609241e+04
3.2900	3.613839e+04
3.2910	3.618440e+04
3.2920	3.623043e+04
3.2930	3.627650e+04
3.2940	3.632260e+04
3.2950	3.636874e+04
3.2960	3.641491e+04
3.2970	3.646112e+04
3.2980	3.650737e+04
3.2990	3.655366e+04
3.3000	3.660000e+04
3.3010	3.664638e+04
3.3020	3.669281e+04
3.3030	3.673929e+04
3.3040	3.678582e+04
3.3050	3.683240e+04
3.3060	3.687903e+04
3.3070	3.692571e+04
3.3080	3.697245e+04
3.3090	3.701925e+04
3.3100	3.706610e+04
3.3110	3.711300e+04
3.3120	3.715997e+04
3.3130	3.720700e+04
3.3140	3.725409e+04
3.3150	3.730124e+04
3.3160	3.734845e+04
3.3170	3.739573e+04
3.3180	3.744308e+04
3.3190	3.749049e+04
3.3200	3.753797e+04
3.3210	3.758552e+04
3.3220	3.763314e+04
3.3230	3.768084e+04
3.3240	3.772860e+04
3.3250	3.777644e+04
3.3260	3.782436e+04
3.3270	3.787235e+04
3.3280	3.792042e+04
3.3290	3.796857e+04
3.3300	3.801680e+04
3.3310	3.806511e+04
3.3320	3.811350e+04
3.3330	3.816198e+04
3.3340	3.821054e+04
3.3350	3.825919e+04
3.3360	3.830792e+04
3.3370	3.835674e+04
3.3380	3.840565e+04
3.3390	3.845466e+04
3.3400	3.850375e+04
3.3410	3.855294e+04
3.3420	3.860222e+04
3.3430	3.865160e+04
3.3440	3.870107e+04
3.3450	3.875064e+04
3.3460	3.880031e+04
3.3470	3.885008e+04
3.3480	3.889995e+04
3.3490	3.894992e+04
3.3500	3.900000e+04
3.3510	3.905018e+04
3.3520	3.910046e+04
3.3530	3.915085e+04
3.3540	3.920133e+04
3.3550	3.925192e+04
3.3560	3.930259e+04
3.3570	3.935337e+04
3.3580	3.940423e+04
3.3590	3.945518e+04
3.3600	3.950623e+04
3.3610	3.955736e+04
3.3620	3.960857e+04
3.3630	3.965987e+04
3.3640	3.971125e+04
3.3650	3.976271e+04
3.3660	3.981424e+04
3.3670	3.986585e+04
3.3680	3.991754e+04
3.3690	3.996930e+04
3.3700	4.002113e+04
3.3710	4.007303e+04
3.3720	4.012500e+04
3.3730	4.017703e+04
3.3740	4.022912e+04
3.3750	4.028128e+04
3.3760	4.033349e+04
3.3770	4.038577e+04
3.3780	4.043810e+04
3.3790	4.049049e+04
3.3800	4.054292e+04
3.3810	4.059541e+04
3.3820	4.064795e+04
3.3830	4.070054e+04
3.3840	4.075317e+04
3.3850	4.080584e+04
3.3860	4.085856e+04
3.3870	4.091132e+04
3.3880	4.096411e+04
3.3890	4.101694e+04
3.3900	4.106981e+04
3.3910	4.112271e+04
3.3920	4.117564e+04
3.3930	4.122860e+04
3.3940	4.128159e+04
3.3950	4.133460e+04
3.3960	4.138764e+04
3.3970	4.144070e+04
3.3980	4.149378e+04
3.3990	4.154688e+04
3.4000	4.160000e+04
3.4010	4.165313e+04
3.4020	4.170628e+04
3.4030	4.175945e+04
3.4040	4.181263e+04
3.4050	4.186584e+04
3.4060	4.191906e+04
3.4070	4.197231e+04
3.4080	4.202558e+04
3.4090	4.207888e+04
3.4100	4.213220e+04
3.4110	4.218555e+04
3.4120	4.223893e+04
3.4130	4.229233e+04
3.4140	4.234577e+04
3.4150	4.239924e+04
3.4160	4.245274e+04
3.4170	4.250628e+04
3.4180	4.255985e+04
3.4190	4.261346e+04
3.4200	4.266710e+04
3.4210	4.272079e+04
3.4220	4.277451e+04
3.4230	4.282828e+04
3.4240	4.288209e+04
3.4250	4.293594e+04
3.4260	4.298984e+04
3.4270	4.304379e+04
3.4280	4.309778e+04
3.4290	4.315182e+04
3.4300	4.320591e+04
3.4310	4.326005e+04
3.4320	4.331424e+04
3.4330	4.336849e+04
3.4340	4.342279e+04
3.4350	4.347715e+04
3.4360	4.353156e+04
3.4370	4.358603e+04
3.4380	4.364056e+04
3.4390	4.369516e+04
3.4400	4.374981e+04
3.4410	4.380453e+04
3.4420	4.385931e+04
3.4430	4.391415e+04
3.4440	4.396906e+04
3.4450	4.402404e+04
3.4460	4.407909e+04
3.4470	4.413421e+04
3.4480	4.418940e+04
3.4490	4.424466e+04
3.4500	4.430000e+04
3.4510	4.435541e+04
3.4520	4.441089e+04
3.4530	4.446644e+04
3.4540	4.452206e+04
3.4550	4.457774e+04
3.4560	4.463348e+04
3.4570	4.468928e+04
3.4580	4.474513e+04
3.4590	4.480103e+04
3.4600	4.485698e+04
3.4610	4.491297e+04
3.4620	4.496901e+04
3.4630	4.502508e+04
3.4640	4.508120e+04
3.4650	4.513734e+04
3.4660	4.519352e+04
3.4670	4.524972e+04
3.4680	4.530594e+04
3.4690	4.536219e+04
3.4700	4.541845e+04
3.4710	4.547473e+04
3.4720	4.553103e+04
3.4730	4.558733e+04
3.4740	4.564364e+04
3.4750	4.569995e+04
3.4760	4.575626e+04
3.4770	4.581256e+04
3.4780	4.586887e+04
3.4790	4.592516e+04
3.4800	4.598144e+04
3.4810	4.603771e+04
3.4820	4.609396e+04
3.4830	4.615019e+04
3.4840	4.620639e+04
3.4850	4.626257e+04
3.4860	4.631872e+04
3.4870	4.637483e+04
3.4880	4.643091e+04
3.4890	4.648695e+04
3.4900	4.654295e+04
3.4910	4.659891e+04
3.4920	4.665481e+04
3.4930	4.671067e+04
3.4940	4.676647e+04
3.4950	4.682222e+04
3.4960	4.687791e+04
3.4970	4.693353e+04
3.4980	4.698909e+04
3.4990	4.704458e+04
3.5000	4.710000e+04
3.5010	4.715535e+04
3.5020	4.721062e+04
3.5030	4.726584e+04
3.5040	4.732100e+04
3.5050	4.737610e+04
3.5060	4.743117e+04
3.5070	4.748619e+04
3.5080	4.754118e+04
3.5090	4.759614e+04
3.5100	4.765109e+04
3.5110	4.770602e+04
3.5120	4.776093e+04
3.5130	4.781585e+04
3.5140	4.787077e+04
3.5150	4.792570e+04
3.5160	4.798064e+04
3.5170	4.803560e+04
3.5180	4.809059e+04
3.5190	4.814562e+04
3.5200	4.820068e+04
3.5210	4.825578e+04
3.5220	4.831094e+04
3.5230	4.836615e+04
3.5240	4.842143e+04
3.5250	4.847677e+04
3.5260	4.853219e+04
3.5270	4.858769e+04
3.5280	4.864327e+04
3.5290	4.869895e+04
3.5300	4.875473e+04
3.5310	4.881060e+04
3.5320	4.886659e+04
3.5330	4.892270e+04
3.5340	4.897893e+04
3.5350	4.903528e+04
3.5360	4.909177e+04
3.5370	4.914840e+04
3.5380	4.920517e+04
3.5390	4.926210e+04
3.5400	4.931918e+04
3.5410	4.937643e+04
3.5420	4.943385e+04
3.5430	4.949144e+04
3.5440	4.954921e+04
3.5450	4.960717e+04
3.5460	4.966533e+04
3.5470	4.972368e+04
3.5480	4.978224e+04
3.5490	4.984101e+04
3.5500	4.990000e+04
3.5510	4.995921e+04
3.5520	5.001863e+04
3.5530	5.007827e+04
3.5540	5.013811e+04
3.5550	5.019815e+04
3.5560	5.025838e+04
3.5570	5.031879e+04
3.5580	5.037938e+04
3.5590	5.044014e+04
3.5600	5.050107e+04
3.5610	5.056216e+04
3.5620	5.062340e+04
3.5630	5.068478e+04
3.5640	5.074631e+04
3.5650	5.080797e+04
3.5660	5.086975e+04
3.5670	5.093166e+04
3.5680	5.099368e+04
3.5690	5.105580e+04
3.5700	5.111803e+04
3.5710	5.118036e+04
3.5720	5.124277e+04
3.5730	5.130526e+04
3.5740	5.136783e+04
3.5750	5.143046e+04
3.5760	5.149316e+04
3.5770	5.155592e+04
3.5780	5.161872e+04
3.5790	5.168157e+04
3.5800	5.174446e+04
3.5810	5.180737e+04
3.5820	5.187031e+04
3.5830	5.193327e+04
3.5840	5.199624e+04
3.5850	5.205921e+04
3.5860	5.212218e+04
3.5870	5.218515e+04
3.5880	5.224809e+04
3.5890	5.231102e+04
3.5900	5.237392e+04
3.5910	5.243679e+04
3.5920	5.249961e+04
3.5930	5.256239e+04
3.5940	5.262512e+04
3.5950	5.268779e+04
3.5960	5.275039e+04
3.5970	5.281291e+04
3.5980	5.287536e+04
3.5990	5.293773e+04
3.6000	5.300000e+04
3.6010	5.306218e+04
3.6020	5.312426e+04
3.6030	5.318626e+04
3.6040	5.324817e+04
3.6050	5.331001e+04
3.6060	5.337177e+04
3.6070	5.343347e+04
3.6080	5.349511e+04
3.6090	5.355669e+04
3.6100	5.361823e+04
3.6110	5.367972e+04
3.6120	5.374117e+04
3.6130	5.380258e+04
3.6140	5.386397e+04
3.6150	5.392533e+04
3.6160	5.398668e+04
3.6170	5.404801e+04
3.6180	5.410934e+04
3.6190	5.417066e+04
3.6200	5.423199e+04
3.6210	5.429333e+04
3.6220	5.435468e+04
3.6230	5.441605e+04
3.6240	5.447745e+04
3.6250	5.453887e+04
3.6260	5.460033e+04
3.6270	5.466184e+04
3.6280	5.472338e+04
3.6290	5.478498e+04
3.6300	5.484664e+04
3.6310	5.490836e+04
3.6320	5.497015e+04
3.6330	5.503201e+04
3.6340	5.509395e+04
3.6350	5.515597e+04
3.6360	5.521808e+04
3.6370	5.528029e+04
3.6380	5.534260e+04
3.6390	5.540501e+04
3.6400	5.546753e+04
3.6410	5.553017e+04
3.6420	5.559292e+04
3.6430	5.565581e+04
3.6440	5.571883e+04
3.6450	5.578198e+04
3.6460	5.584528e+04
3.6470	5.590872e+04
3.6480	5.597232e+04
3.6490	5.603608e+04
3.6500	5.610000e+04
3.6510	5.616409e+04
3.6520	5.622834e+04
3.6530	5.629275e+04
3.6540	5.635732e+04
3.6550	5.642203e+04
3.6560	5.648688e+04
3.6570	5.655187e+04
3.6580	5.661700e+04
3.6590	5.668225e+04
3.6600	5.674762e+04
3.6610	5.681311e+04
3.6620	5.687870e+04
3.6630	5.694440e+04
3.6640	5.701021e+04
3.6650	5.707610e+04
3.6660	5.714208e+04
3.6670	5.720815e+04
3.6680	5.727430e+04
3.6690	5.734052e+04
3.6700	5.740680e+04
3.6710	5.747315e+04
3.6720	5.753955e+04
3.6730	5.760601e+04
3.6740	5.767251e+04
3.6750	5.773905e+04
3.6760	5.780562e+04
3.6770	5.787223e+04
3.6780	5.793886e+04
3.6790	5.800551e+04
3.6800	5.807217e+04
3.6810	5.813884e+04
3.6820	5.820552e+04
3.6830	5.827219e+04
3.6840	5.833885e+04
3.6850	5.840550e+04
3.6860	5.847213e+04
3.6870	5.853874e+04
3.6880	5.860532e+04
3.6890	5.867186e+04
3.6900	5.873836e+04
3.6910	5.880482e+04
3.6920	5.887123e+04
3.6930	5.893758e+04
3.6940	5.900387e+04
3.6950	5.907009e+04
3.6960	5.913624e+04
3.6970	5.920231e+04
3.6980	5.926829e+04
3.6990	5.933419e+04
3.7000	5.940000e+04
3.7010	5.946571e+04
3.7020	5.953132e+04
3.7030	5.959685e+04
3.7040	5.966230e+04
3.7050	5.972768e+04
3.7060	5.979299e+04
3.7070	5.985824e+04
3.7080	5.992344e+04
3.7090	5.998859e+04
3.7100	6.005370e+04
3.7110	6.011877e+04
3.7120	6.018382e+04
3.7130	6.024885e+04
3.7140	6.031386e+04
3.7150	6.037887e+04
3.7160	6.044387e+04
3.7170	6.050888e+04
3.7180	6.057390e+04
3.7190	6.063894e+04
3.7200	6.070401e+04
3.7210	6.076910e+04
3.7220	6.083424e+04
3.7230	6.089942e+04
3.7240	6.096465e+04
3.7250	6.102993e+04
3.7260	6.109529e+04
3.7270	6.116071e+04
3.7280	6.122621e+04
3.7290	6.129179e+04
3.7300	6.135747e+04
3.7310	6.142324e+04
3.7320	6.148911e+04
3.7330	6.155510e+04
3.7340	6.162120e+04
3.7350	6.168742e+04
3.7360	6.175378e+04
3.7370	6.182027e+04
3.7380	6.188690e+04
3.7390	6.195368e+04
3.7400	6.202062e+04
3.7410	6.208772e+04
3.7420	6.215499e+04
3.7430	6.222243e+04
3.7440	6.229006e+04
3.7450	6.235787e+04
3.7460	6.242588e+04
3.7470	6.249409e+04
3.7480	6.256251e+04
3.7490	6.263115e+04
3.7500	6.270000e+04
3.7510	6.276908e+04
3.7520	6.283838e+04
3.7530	6.290790e+04
3.7540	6.297762e+04
3.7550	6.304755e+04
3.7560	6.311767e+04
3.7570	6.318799e+04
3.7580	6.325848e+04
3.7590	6.332915e+04
3.7600	6.340000e+04
3.7610	6.347100e+04
3.7620	6.354217e+04
3.7630	6.361348e+04
3.7640	6.368494e+04
3.7650	6.375654e+04
3.7660	6.382827e+04
3.7670	6.390012e+04
3.7680	6.397210e+04
3.7690	6.404418e+04
3.7700	6.411638e+04
3.7710	6.418867e+04
3.7720	6.426106e+04
3.7730	6.433353e+04
3.7740	6.440609e+04
3.7750	6.447872e+04
3.7760	6.455142e+04
3.7770	6.462417e+04
3.7780	6.469699e+04
3.7790	6.476985e+04
3.7800	6.484276e+04
3.7810	6.491570e+04
3.7820	6.498868e+04
3.7830	6.506167e+04
3.7840	6.513468e+04
3.7850	6.520771e+04
3.7860	6.528074e+04
3.7870	6.535376e+04
3.7880	6.542678e+04
3.7890	6.549978e+04
3.7900	6.557276e+04
3.7910	6.564572e+04
3.7920	6.571864e+04
3.7930	6.579151e+04
3.7940	6.586435e+04
3.7950	6.593713e+04
3.7960	6.600985e+04
3.7970	6.608250e+04
3.7980	6.615508e+04
3.7990	6.622758e+04
3.8000	6.630000e+04
3.8010	6.637233e+04
3.8020	6.644457e+04
3.8030	6.651673e+04
3.8040	6.658881e+04
3.8050	6.666082e+04
3.8060	6.673276e+04
3.8070	6.680463e+04
3.8080	6.687645e+04
3.8090	6.694821e+04
3.8100	6.701992e+04
3.8110	6.709159e+04
3.8120	6.716321e+04
3.8130	6.723480e+04
3.8140	6.730636e+04
3.8150	6.737789e+04
3.8160	6.744939e+04
3.8170	6.752088e+04
3.8180	6.759236e+04
3.8190	6.766382e+04
3.8200	6.773529e+04
3.8210	6.780675e+04
3.8220	6.787822e+04
3.8230	6.794970e+04
3.8240	6.802119e+04
3.8250	6.809270e+04
3.8260	6.816423e+04
3.8270	6.823579e+04
3.8280	6.830739e+04
3.8290	6.837902e+04
3.8300	6.845069e+04
3.8310	6.852241e+04
3.8320	6.859418e+04
3.8330	6.866601e+04
3.8340	6.873790e+04
3.8350	6.880985e+04
3.8360	6.888187e+04
3.8370	6.895396e+04
3.8380	6.902613e+04
3.8390	6.909839e+04
3.8400	6.917073e+04
3.8410	6.924317e+04
3.8420	6.931570e+04
3.8430	6.938834e+04
3.8440	6.946108e+04
3.8450	6.953393e+04
3.8460	6.960689e+04
3.8470	6.967998e+04
3.8480	6.975319e+04
3.8490	6.982653e+04
3.8500	6.990000e+04
3.8510	6.997361e+04
3.8520	7.004736e+04
3.8530	7.012123e+04
3.8540	7.019524e+04
3.8550	7.026938e+04
3.8560	7.034365e+04
3.8570	7.041804e+04
3.8580	7.049255e+04
3.8590	7.056718e+04
3.8600	7.064192e+04
3.8610	7.071678e+04
3.8620	7.079176e+04
3.8630	7.086684e+04
3.8640	7.094203e+04
3.8650	7.101732e+04
3.8660	7.109272e+04
3.8670	7.116821e+04
3.8680	7.124381e+04
3.8690	7.131949e+04
3.8700	7.139528e+04
3.8710	7.147115e+04
3.8720	7.154711e+04
3.8730	7.162315e+04
3.8740	7.169928e+04
3.8750	7.177549e+04
3.8760	7.185178e+04
3.8770	7.192814e+04
3.8780	7.200458e+04
3.8790	7.208109e+04
3.8800	7.215767e+04
3.8810	7.223431e+04
3.8820	7.231102e+04
3.8830	7.238779e+04
3.8840	7.246462e+04
3.8850	7.254150e+04
3.8860	7.261845e+04
3.8870	7.269544e+04
3.8880	7.277248e+04
3.8890	7.284957e+04
3.8900	7.292671e+04
3.8910	7.300388e+04
3.8920	7.308110e+04
3.8930	7.315836e+04
3.8940	7.323565e+04
3.8950	7.331297e+04
3.8960	7.339032e+04
3.8970	7.346771e+04
3.8980	7.354512e+04
3.8990	7.362255e+04
3.9000	7.370000e+04
3.9010	7.377747e+04
3.9020	7.385496e+04
3.9030	7.393247e+04
3.9040	7.401000e+04
3.9050	7.408755e+04
3.9060	7.416512e+04
3.9070	7.424270e+04
3.9080	7.432031e+04
3.9090	7.439794e+04
3.9100	7.447559e+04
3.9110	7.455325e+04
3.9120	7.463094e+04
3.9130	7.470865e+04
3.9140	7.478638e+04
3.9150	7.486413e+04
3.9160	7.494191e+04
3.9170	7.501970e+04
3.9180	7.509751e+04
3.9190	7.517535e+04
3.9200	7.525321e+04
3.9210	7.533109e+04
3.9220	7.540899e+04
3.9230	7.548692e+04
3.9240	7.556487e+04
3.9250	7.564284e+04
3.9260	7.572083e+04
3.9270	7.579885e+04
3.9280	7.587689e+04
3.9290	7.595495e+04
3.9300	7.603304e+04
3.9310	7.611115e+04
3.9320	7.618928e+04
3.9330	7.626744e+04
3.9340	7.634563e+04
3.9350	7.642383e+04
3.9360	7.650207e+04
3.9370	7.658032e+04
3.9380	7.665861e+04
3.9390	7.673691e+04
3.9400	7.681525e+04
3.9410	7.689360e+04
3.9420	7.697199e+04
3.9430	7.705040e+04
3.9440	7.712883e+04
3.9450	7.720729e+04
3.9460	7.728578e+04
3.9470	7.736430e+04
3.9480	7.744284e+04
3.9490	7.752141e+04
3.9500	7.760000e+04
3.9510	7.767862e+04
3.9520	7.775727e+04
3.9530	7.783596e+04
3.9540	7.791467e+04
3.9550	7.799342e+04
3.9560	7.807220e+04
3.9570	7.815102e+04
3.9580	7.822988e+04
3.9590	7.830879e+04
3.9600	7.838773e+04
3.9610	7.846672e+04
3.9620	7.854575e+04
3.9630	7.862483e+04
3.9640	7.870396e+04
3.9650	7.878315e+04
3.9660	7.886238e+04
3.9670	7.894167e+04
3.9680	7.902102e+04
3.9690	7.910042e+04
3.9700	7.917989e+04
3.9710	7.925941e+04
3.9720	7.933900e+04
3.9730	7.941865e+04
3.9740	7.949837e+04
3.9750	7.957816e+04
3.9760	7.965801e+04
3.9770	7.973794e+04
3.9780	7.981795e+04
3.9790	7.989802e+04
3.9800	7.997818e+04
3.9810	8.005841e+04
3.9820	8.013872e+04
3.9830	8.021912e+04
3.9840	8.029959e+04
3.9850	8.038016e+04
3.9860	8.046081e+04
3.9870	8.054155e+04
3.9880	8.062238e+04
3.9890	8.070330e+04
3.9900	8.078431e+04
3.9910	8.086542e+04
3.9920	8.094663e+04
3.9930	8.102794e+04
3.9940	8.110935e+04
3.9950	8.119086e+04
3.9960	8.127247e+04
3.9970	8.135419e+04
3.9980	8.143602e+04
3.9990	8.151795e+04
4.0000	8.160000e+04
4.0010	8.168216e+04
4.0020	8.176443e+04
4.0030	8.184681e+04
4.0040	8.192929e+04
4.0050	8.201188e+04
4.0060	8.209457e+04
4.0070	8.217736e+04
4.0080	8.226024e+04
4.0090	8.234322e+04
4.0100	8.242630e+04
4.0110	8.250946e+04
4.0120	8.259271e+04
4.0130	8.267605e+04
4.0140	8.275947e+04
4.0150	8.284298e+04
4.0160	8.292656e+04
4.0170	8.301022e+04
4.0180	8.309396e+04
4.0190	8.317777e+04
4.0200	8.326165e+04
4.0210	8.334560e+04
4.0220	8.342961e+04
4.0230	8.351369e+04
4.0240	8.359783e+04
4.0250	8.368203e+04
4.0260	8.376629e+04
4.0270	8.385060e+04
4.0280	8.393497e+04
4.0290	8.401939e+04
4.0300	8.410385e+04
4.0310	8.418836e+04
4.0320	8.427292e+04
4.0330	8.435752e+04
4.0340	8.444216e+04
4.0350	8.452684e+04
4.0360	8.461155e+04
4.0370	8.469629e+04
4.0380	8.478107e+04
4.0390	8.486587e+04
4.0400	8.495070e+04
4.0410	8.503556e+04
4.0420	8.512044e+04
4.0430	8.520534e+04
4.0440	8.529025e+04
4.0450	8.537518e+04
4.0460	8.546013e+04
4.0470	8.554509e+04
4.0480	8.563005e+04
4.0490	8.571502e+04
4.0500	8.580000e+04
4.0510	8.588498e+04
4.0520	8.596996e+04
4.0530	8.605496e+04
4.0540	8.613996e+04
4.0550	8.622497e+04
4.0560	8.631000e+04
4.0570	8.639504e+04
4.0580	8.648010e+04
4.0590	8.656518e+04
4.0600	8.665029e+04
4.0610	8.673542e+04
4.0620	8.682058e+04
4.0630	8.690576e+04
4.0640	8.699099e+04
4.0650	8.707624e+04
4.0660	8.716153e+04
4.0670	8.724687e+04
4.0680	8.733224e+04
4.0690	8.741766e+04
4.0700	8.750312e+04
4.0710	8.758863e+04
4.0720	8.767420e+04
4.0730	8.775981e+04
4.0740	8.784549e+04
4.0750	8.793122e+04
4.0760	8.801701e+04
4.0770	8.810286e+04
4.0780	8.818878e+04
4.0790	8.827476e+04
4.0800	8.836081e+04
4.0810	8.844694e+04
4.0820	8.853314e+04
4.0830	8.861941e+04
4.0840	8.870577e+04
4.0850	8.879220e+04
4.0860	8.887872e+04
4.0870	8.896532e+04
4.0880	8.905201e+04
4.0890	8.913880e+04
4.0900	8.922567e+04
4.0910	8.931264e+04
4.0920	8.939970e+04
4.0930	8.948687e+04
4.0940	8.957414e+04
4.0950	8.966151e+04
4.0960	8.974898e+04
4.0970	8.983657e+04
4.0980	8.992427e+04
4.0990	9.001207e+04
4.1000	9.010000e+04
4.1010	9.018804e+04
4.1020	9.027620e+04
4.1030	9.036447e+04
4.1040	9.045285e+04
4.1050	9.054134e+04
4.1060	9.062994e+04
4.1070	9.071864e+04
4.1080	9.080745e+04
4.1090	9.089635e+04
4.1100	9.098536e+04
4.1110	9.107445e+04
4.1120	9.116364e+04
4.1130	9.125293e+04
4.1140	9.134230e+04
4.1150	9.143176e+04
4.1160	9.152130e+04
4.1170	9.161092e+04
4.1180	9.170063e+04
4.1190	9.179041e+04
4.1200	9.188026e+04
4.1210	9.197019e+04
4.1220	9.206020e+04
4.1230	9.215027e+04
4.1240	9.224040e+04
4.1250	9.233060e+04
4.1260	9.242087e+04
4.1270	9.251119e+04
4.1280	9.260157e+04
4.1290	9.269200e+04
4.1300	9.278249e+04
4.1310	9.287303e+04
4.1320	9.296362e+04
4.1330	9.305426e+04
4.1340	9.314494e+04
4.1350	9.323566e+04
4.1360	9.332642e+04
4.1370	9.341722e+04
4.1380	9.350805e+04
4.1390	9.359892e+04
4.1400	9.368982e+04
4.1410	9.378074e+04
4.1420	9.387170e+04
4.1430	9.396267e+04
4.1440	9.405367e+04
4.1450	9.414469e+04
4.1460	9.423573e+04
4.1470	9.432678e+04
4.1480	9.441784e+04
4.1490	9.450892e+04
4.1500	9.460000e+04
4.1510	9.469109e+04
4.1520	9.478219e+04
4.1530	9.487330e+04
4.1540	9.496442e+04
4.1550	9.505555e+04
4.1560	9.514670e+04
4.1570	9.523787e+04
4.1580	9.532905e+04
4.1590	9.542026e+04
4.1600	9.551149e+04
4.1610	9.560274e+04
4.1620	9.569402e+04
4.1630	9.578533e+04
4.1640	9.587667e+04
4.1650	9.596804e+04
4.1660	9.605944e+04
4.1670	9.615088e+04
4.1680	9.624235e+04
4.1690	9.633387e+04
4.1700	9.642542e+04
4.1710	9.651702e+04
4.1720	9.660866e+04
4.1730	9.670035e+04
4.1740	9.679209e+04
4.1750	9.688387e+04
4.1760	9.697571e+04
4.1770	9.706760e+04
4.1780	9.715955e+04
4.1790	9.725155e+04
4.1800	9.734361e+04
4.1810	9.743573e+04
4.1820	9.752792e+04
4.1830	9.762017e+04
4.1840	9.771248e+04
4.1850	9.780487e+04
4.1860	9.789732e+04
4.1870	9.798984e+04
4.1880	9.808244e+04
4.1890	9.817512e+04
4.1900	9.826787e+04
4.1910	9.836070e+04
4.1920	9.845360e+04
4.1930	9.854660e+04
4.1940	9.863967e+04
4.1950	9.873284e+04
4.1960	9.882609e+04
4.1970	9.891942e+04
4.1980	9.901286e+04
4.1990	9.910638e+04
4.2000	9.920000e+04
4.2010	9.929372e+04
4.2020	9.938753e+04
4.2030	9.948144e+04
4.2040	9.957544e+04
4.2050	9.966955e+04
4.2060	9.976374e+04
4.2070	9.985804e+04
4.2080	9.995242e+04
4.2090	1.000469e+05
4.2100	1.001415e+05
4.2110	1.002362e+05
4.2120	1.003309e+05
4.2130	1.004258e+05
4.2140	1.005207e+05
4.2150	1.006158e+05
4.2160	1.007109e+05
4.2170	1.008062e+05
4.2180	1.009015e+05
4.2190	1.009969e+05
4.2200	1.010924e+05
4.2210	1.011881e+05
4.2220	1.012838e+05
4.2230	1.013795e+05
4.2240	1.014754e+05
4.2250	1.015714e+05
4.2260	1.016675e+05
4.2270	1.017636e+05
4.2280	1.018599e+05
4.2290	1.019562e+05
4.2300	1.020527e+05
4.2310	1.021492e+05
4.2320	1.022458e+05
4.2330	1.023425e+05
4.2340	1.024393e+05
4.2350	1.025362e+05
4.2360	1.026331e+05
4.2370	1.027302e+05
4.2380	1.028274e+05
4.2390	1.029246e+05
4.2400	1.030219e+05
4.2410	1.031193e+05
4.2420	1.032168e+05
4.2430	1.033144e+05
4.2440	1.034121e+05
4.2450	1.035099e+05
4.2460	1.036077e+05
4.2470	1.037057e+05
4.2480	1.038037e+05
4.2490	1.039018e+05
4.2500	1.040000e+05
4.2510	1.040983e+05
4.2520	1.041967e+05
4.2530	1.042951e+05
4.2540	1.043936e+05
4.2550	1.044923e+05
4.2560	1.045910e+05
4.2570	1.046897e+05
4.2580	1.047886e+05
4.2590	1.048875e+05
4.2600	1.049866e+05
4.2610	1.050857e+05
4.2620	1.051848e+05
4.2630	1.052841e+05
4.2640	1.053834e+05
4.2650	1.054828e+05
4.2660	1.055822e+05
4.2670	1.056818e+05
4.2680	1.057814e+05
4.2690	1.058811e+05
4.2700	1.059808e+05
4.2710	1.060806e+05
4.2720	1.061805e+05
4.2730	1.062804e+05
4.2740	1.063804e+05
4.2750	1.064805e+05
4.2760	1.065806e+05
4.2770	1.066808e+05
4.2780	1.067811e+05
4.2790	1.068814e+05
4.2800	1.069817e+05
4.2810	1.070822e+05
4.2820	1.071827e+05
4.2830	1.072832e+05
4.2840	1.073838e+05
4.2850	1.074844e+05
4.2860	1.075851e+05
4.2870	1.076859e+05
4.2880	1.077867e+05
4.2890	1.078876e+05
4.2900	1.079885e+05
4.2910	1.080894e+05
4.2920	1.081904e+05
4.2930	1.082915e+05
4.2940	1.083925e+05
4.2950	1.084937e+05
4.2960	1.085949e+05
4.2970	1.086961e+05
4.2980	1.087974e+05
4.2990	1.088987e+05
4.3000	1.090000e+05
4.3010	1.091014e+05
4.3020	1.092028e+05
4.3030	1.093042e+05
4.3040	1.094057e+05
4.3050	1.095072e+05
4.3060	1.096087e+05
4.3070	1.097102e+05
4.3080	1.098117e+05
4.3090	1.099132e+05
4.3100	1.100146e+05
4.3110	1.101161e+05
4.3120	1.102176e+05
4.3130	1.103190e+05
4.3140	1.104203e+05
4.3150	1.105217e+05
4.3160	1.106230e+05
4.3170	1.107242e+05
4.3180	1.108254e+05
4.3190	1.109265e+05
4.3200	1.110276e+05
4.3210	1.111286e+05
4.3220	1.112295e+05
4.3230	1.113303e+05
4.3240	1.114310e+05
4.3250	1.115316e+05
4.3260	1.116322e+05
4.3270	1.117326e+05
4.3280	1.118329e+05
4.3290	1.119331e+05
4.3300	1.120332e+05
4.3310	1.121331e+05
4.3320	1.122329e+05
4.3330	1.123326e+05
4.3340	1.124321e+05
4.3350	1.125315e+05
4.3360	1.126307e+05
4.3370	1.127297e+05
4.3380	1.128286e+05
4.3390	1.129273e+05
4.3400	1.130259e+05
4.3410	1.131242e+05
4.3420	1.132223e+05
4.3430	1.133203e+05
4.3440	1.134181e+05
4.3450	1.135156e+05
4.3460	1.136129e+05
4.3470	1.137100e+05
4.3480	1.138069e+05
4.3490	1.139036e+05
4.3500	1.140000e+05
4.3510	1.140962e+05
4.3520	1.141922e+05
4.3530	1.142879e+05
4.3540	1.143835e+05
4.3550	1.144790e+05
4.3560	1.145743e+05
4.3570	1.146695e+05
4.3580	1.147647e+05
4.3590	1.148598e+05
4.3600	1.149548e+05
4.3610	1.150499e+05
4.3620	1.151450e+05
4.3630	1.152401e+05
4.3640	1.153352e+05
4.3650	1.154305e+05
4.3660	1.155259e+05
4.3670	1.156214e+05
4.3680	1.157170e+05
4.3690	1.158129e+05
4.3700	1.159089e+05
4.3710	1.160052e+05
4.3720	1.161017e+05
4.3730	1.161985e+05
4.3740	1.162955e+05
4.3750	1.163929e+05
4.3760	1.164907e+05
4.3770	1.165888e+05
4.3780	1.166873e+05
4.3790	1.167862e+05
4.3800	1.168855e+05
4.3810	1.169853e+05
4.3820	1.170856e+05
4.3830	1.171864e+05
4.3840	1.172878e+05
4.3850	1.173896e+05
4.3860	1.174921e+05
4.3870	1.175951e+05
4.3880	1.176988e+05
4.3890	1.178031e+05
4.3900	1.179081e+05
4.3910	1.180138e+05
4.3920	1.181202e+05
4.3930	1.182273e+05
4.3940	1.183352e+05
4.3950	1.184439e+05
4.3960	1.185534e+05
4.3970	1.186638e+05
4.3980	1.187750e+05
4.3990	1.188870e+05
4.4000	1.190000e+05
4.4010	1.191139e+05
4.4020	1.192287e+05
4.4030	1.193443e+05
4.4040	1.194607e+05
4.4050	1.195779e+05
4.4060	1.196958e+05
4.4070	1.198144e+05
4.4080	1.199337e+05
4.4090	1.200536e+05
4.4100	1.201740e+05
4.4110	1.202950e+05
4.4120	1.204164e+05
4.4130	1.205383e+05
4.4140	1.206606e+05
4.4150	1.207833e+05
4.4160	1.209063e+05
4.4170	1.210296e+05
4.4180	1.211532e+05
4.4190	1.212769e+05
4.4200	1.214008e+05
4.4210	1.215249e+05
4.4220	1.216490e+05
4.4230	1.217732e+05
4.4240	1.218974e+05
4.4250	1.220216e+05
4.4260	1.221457e+05
4.4270	1.222697e+05
4.4280	1.223936e+05
4.4290	1.225172e+05
4.4300	1.226407e+05
4.4310	1.227638e+05
4.4320	1.228867e+05
4.4330	1.230092e+05
4.4340	1.231313e+05
4.4350	1.232530e+05
4.4360	1.233742e+05
4.4370	1.234949e+05
4.4380	1.236151e+05
4.4390	1.237347e+05
4.4400	1.238537e+05
4.4410	1.239719e+05
4.4420	1.240895e+05
4.4430	1.242064e+05
4.4440	1.243224e+05
4.4450	1.244377e+05
4.4460	1.245520e+05
4.4470	1.246655e+05
4.4480	1.247780e+05
4.4490	1.248895e+05
4.4500	1.250000e+05
4.4510	1.251094e+05
4.4520	1.252179e+05
4.4530	1.253253e+05
4.4540	1.254318e+05
4.4550	1.255374e+05
4.4560	1.256421e+05
4.4570	1.257460e+05
4.4580	1.258491e+05
4.4590	1.259515e+05
4.4600	1.260532e+05
4.4610	1.261541e+05
4.4620	1.262545e+05
4.4630	1.263543e+05
4.4640	1.264535e+05
4.4650	1.265523e+05
4.4660	1.266506e+05
4.4670	1.267484e+05
4.4680	1.268459e+05
4.4690	1.269430e+05
4.4700	1.270398e+05
4.4710	1.271363e+05
4.4720	1.272326e+05
4.4730	1.273288e+05
4.4740	1.274247e+05
4.4750	1.275206e+05
4.4760	1.276164e+05
4.4770	1.277122e+05
4.4780	1.278080e+05
4.4790	1.279039e+05
4.4800	1.279998e+05
4.4810	1.280959e+05
4.4820	1.281922e+05
4.4830	1.282886e+05
4.4840	1.283853e+05
4.4850	1.284824e+05
4.4860	1.285797e+05
4.4870	1.286774e+05
4.4880	1.287756e+05
4.4890	1.288742e+05
4.4900	1.289732e+05
4.4910	1.290729e+05
4.4920	1.291731e+05
4.4930	1.292739e+05
4.4940	1.293753e+05
4.4950	1.294775e+05
4.4960	1.295803e+05
4.4970	1.296840e+05
4.4980	1.297885e+05
4.4990	1.298938e+05
4.5000	1.300000e+05
4.5010	1.301071e+05
4.5020	1.302152e+05
4.5030	1.303241e+05
4.5040	1.304339e+05
4.5050	1.305445e+05
4.5060	1.306560e+05
4.5070	1.307682e+05
4.5080	1.308812e+05
4.5090	1.309949e+05
4.5100	1.311094e+05
4.5110	1.312245e+05
4.5120	1.313403e+05
4.5130	1.314568e+05
4.5140	1.315739e+05
4.5150	1.316916e+05
4.5160	1.318098e+05
4.5170	1.319286e+05
4.5180	1.320479e+05
4.5190	1.321678e+05
4.5200	1.322881e+05
4.5210	1.324088e+05
4.5220	1.325300e+05
4.5230	1.326516e+05
4.5240	1.327736e+05
4.5250	1.328959e+05
4.5260	1.330186e+05
4.5270	1.331415e+05
4.5280	1.332648e+05
4.5290	1.333883e+05
4.5300	1.335121e+05
4.5310	1.336360e+05
4.5320	1.337602e+05
4.5330	1.338845e+05
4.5340	1.340090e+05
4.5350	1.341335e+05
4.5360	1.342582e+05
4.5370	1.343830e+05
4.5380	1.345077e+05
4.5390	1.346326e+05
4.5400	1.347574e+05
4.5410	1.348821e+05
4.5420	1.350069e+05
4.5430	1.351315e+05
4.5440	1.352561e+05
4.5450	1.353805e+05
4.5460	1.355048e+05
4.5470	1.356289e+05
4.5480	1.357528e+05
4.5490	1.358765e+05
4.5500	1.360000e+05
4.5510	1.361232e+05
4.5520	1.362461e+05
4.5530	1.363688e+05
4.5540	1.364913e+05
4.5550	1.366135e+05
4.5560	1.367355e+05
4.5570	1.368572e+05
4.5580	1.369788e+05
4.5590	1.371001e+05
4.5600	1.372213e+05
4.5610	1.373423e+05
4.5620	1.374631e+05
4.5630	1.375837e+05
4.5640	1.377042e+05
4.5650	1.378245e+05
4.5660	1.379446e+05
4.5670	1.380646e+05
4.5680	1.381845e+05
4.5690	1.383043e+05
4.5700	1.384240e+05
4.5710	1.385435e+05
4.5720	1.386629e+05
4.5730	1.387823e+05
4.5740	1.389016e+05
4.5750	1.390208e+05
4.5760	1.391399e+05
4.5770	1.392590e+05
4.5780	1.393780e+05
4.5790	1.394970e+05
4.5800	1.396159e+05
4.5810	1.397349e+05
4.5820	1.398538e+05
4.5830	1.399727e+05
4.5840	1.400916e+05
4.5850	1.402105e+05
4.5860	1.403294e+05
4.5870	1.404483e+05
4.5880	1.405673e+05
4.5890	1.406863e+05
4.5900	1.408053e+05
4.5910	1.409244e+05
4.5920	1.410436e+05
4.5930	1.411628e+05
4.5940	1.412821e+05
4.5950	1.414015e+05
4.5960	1.415210e+05
4.5970	1.416406e+05
4.5980	1.417602e+05
4.5990	1.418801e+05
4.6000	1.420000e+05
4.6010	1.421201e+05
4.6020	1.422403e+05
4.6030	1.423606e+05
4.6040	1.424810e+05
4.6050	1.426015e+05
4.6060	1.427221e+05
4.6070	1.428429e+05
4.6080	1.429636e+05
4.6090	1.430845e+05
4.6100	1.432054e+05
4.6110	1.433264e+05
4.6120	1.434474e+05
4.6130	1.435684e+05
4.6140	1.436895e+05
4.6150	1.438106e+05
4.6160	1.439317e+05
4.6170	1.440528e+05
4.6180	1.441739e+05
4.6190	1.442950e+05
4.6200	1.444161e+05
4.6210	1.445372e+05
4.6220	1.446582e+05
4.6230	1.447792e+05
4.6240	1.449001e+05
4.6250	1.450210e+05
4.6260	1.451418e+05
4.6270	1.452625e+05
4.6280	1.453831e+05
4.6290	1.455037e+05
4.6300	1.456241e+05
4.6310	1.457445e+05
4.6320	1.458647e+05
4.6330	1.459848e+05
4.6340	1.461048e+05
4.6350	1.462246e+05
4.6360	1.463443e+05
4.6370	1.464639e+05
4.6380	1.465832e+05
4.6390	1.467024e+05
4.6400	1.468215e+05
4.6410	1.469403e+05
4.6420	1.470589e+05
4.6430	1.471774e+05
4.6440	1.472956e+05
4.6450	1.474136e+05
4.6460	1.475313e+05
4.6470	1.476489e+05
4.6480	1.477662e+05
4.6490	1.478832e+05
4.6500	1.480000e+05
4.6510	1.481165e+05
4.6520	1.482328e+05
4.6530	1.483489e+05
4.6540	1.484647e+05
4.6550	1.485804e+05
4.6560	1.486959e+05
4.6570	1.488114e+05
4.6580	1.489267e+05
4.6590	1.490419e+05
4.6600	1.491571e+05
4.6610	1.492723e+05
4.6620	1.493875e+05
4.6630	1.495026e+05
4.6640	1.496179e+05
4.6650	1.497332e+05
4.6660	1.498486e+05
4.6670	1.499641e+05
4.6680	1.500797e+05
4.6690	1.501956e+05
4.6700	1.503116e+05
4.6710	1.504278e+05
4.6720	1.505443e+05
4.6730	1.506610e+05
4.6740	1.507780e+05
4.6750	1.508953e+05
4.6760	1.510130e+05
4.6770	1.511310e+05
4.6780	1.512494e+05
4.6790	1.513682e+05
4.6800	1.514875e+05
4.6810	1.516072e+05
4.6820	1.517273e+05
4.6830	1.518480e+05
4.6840	1.519692e+05
4.6850	1.520910e+05
4.6860	1.522133e+05
4.6870	1.523362e+05
4.6880	1.524598e+05
4.6890	1.525840e+05
4.6900	1.527089e+05
4.6910	1.528345e+05
4.6920	1.529608e+05
4.6930	1.530878e+05
4.6940	1.532156e+05
4.6950	1.533442e+05
4.6960	1.534737e+05
4.6970	1.536039e+05
4.6980	1.537350e+05
4.6990	1.538671e+05
4.7000	1.540000e+05
4.7010	1.541339e+05
4.7020	1.542686e+05
4.7030	1.544042e+05
4.7040	1.545407e+05
4.7050	1.546779e+05
4.7060	1.548158e+05
4.7070	1.549544e+05
4.7080	1.550937e+05
4.7090	1.552336e+05
4.7100	1.553741e+05
4.7110	1.555151e+05
4.7120	1.556566e+05
4.7130	1.557986e+05
4.7140	1.559410e+05
4.7150	1.560837e+05
4.7160	1.562268e+05
4.7170	1.563702e+05
4.7180	1.565138e+05
4.7190	1.566576e+05
4.7200	1.568016e+05
4.7210	1.569457e+05
4.7220	1.570899e+05
4.7230	1.572342e+05
4.7240	1.573785e+05
4.7250	1.575227e+05
4.7260	1.576669e+05
4.7270	1.578109e+05
4.7280	1.579548e+05
4.7290	1.580985e+05
4.7300	1.582420e+05
4.7310	1.583852e+05
4.7320	1.585281e+05
4.7330	1.586706e+05
4.7340	1.588128e+05
4.7350	1.589544e+05
4.7360	1.590957e+05
4.7370	1.592364e+05
4.7380	1.593765e+05
4.7390	1.595161e+05
4.7400	1.596550e+05
4.7410	1.597932e+05
4.7420	1.599307e+05
4.7430	1.600674e+05
4.7440	1.602034e+05
4.7450	1.603385e+05
4.7460	1.604727e+05
4.7470	1.606060e+05
4.7480	1.607384e+05
4.7490	1.608697e+05
4.7500	1.610000e+05
4.7510	1.611292e+05
4.7520	1.612574e+05
4.7530	1.613846e+05
4.7540	1.615108e+05
4.7550	1.616361e+05
4.7560	1.617606e+05
4.7570	1.618842e+05
4.7580	1.620070e+05
4.7590	1.621290e+05
4.7600	1.622504e+05
4.7610	1.623711e+05
4.7620	1.624911e+05
4.7630	1.626106e+05
4.7640	1.627295e+05
4.7650	1.628480e+05
4.7660	1.629659e+05
4.7670	1.630835e+05
4.7680	1.632006e+05
4.7690	1.633175e+05
4.7700	1.634340e+05
4.7710	1.635503e+05
4.7720	1.636664e+05
4.7730	1.637823e+05
4.7740	1.638981e+05
4.7750	1.640138e+05
4.7760	1.641295e+05
4.7770	1.642451e+05
4.7780	1.643608e+05
4.7790	1.644766e+05
4.7800	1.645925e+05
4.7810	1.647085e+05
4.7820	1.648248e+05
4.7830	1.649413e+05
4.7840	1.650581e+05
4.7850	1.651752e+05
4.7860	1.652927e+05
4.7870	1.654106e+05
4.7880	1.655290e+05
4.7890	1.656479e+05
4.7900	1.657673e+05
4.7910	1.658873e+05
4.7920	1.660079e+05
4.7930	1.661291e+05
4.7940	1.662511e+05
4.7950	1.663738e+05
4.7960	1.664973e+05
4.7970	1.666216e+05
4.7980	1.667468e+05
4.7990	1.668729e+05
4.8000	1.670000e+05
4.8010	1.671280e+05
4.8020	1.672571e+05
4.8030	1.673870e+05
4.8040	1.675179e+05
4.8050	1.676496e+05
4.8060	1.677822e+05
4.8070	1.679156e+05
4.8080	1.680497e+05
4.8090	1.681847e+05
4.8100	1.683203e+05
4.8110	1.684567e+05
4.8120	1.685937e+05
4.8130	1.687314e+05
4.8140	1.688696e+05
4.8150	1.690085e+05
4.8160	1.691479e+05
4.8170	1.692878e+05
4.8180	1.694282e+05
4.8190	1.695690e+05
4.8200	1.697103e+05
4.8210	1.698520e+05
4.8220	1.699940e+05
4.8230	1.701364e+05
4.8240	1.702791e+05
4.8250	1.704221e+05
4.8260	1.705653e+05
4.8270	1.707088e+05
4.8280	1.708524e+05
4.8290	1.709962e+05
4.8300	1.711401e+05
4.8310	1.712841e+05
4.8320	1.714282e+05
4.8330	1.715724e+05
4.8340	1.717165e+05
4.8350	1.718607e+05
4.8360	1.720047e+05
4.8370	1.721487e+05
4.8380	1.722926e+05
4.8390	1.724364e+05
4.8400	1.725800e+05
4.8410	1.727233e+05
4.8420	1.728665e+05
4.8430	1.730094e+05
4.8440	1.731520e+05
4.8450	1.732943e+05
4.8460	1.734363e+05
4.8470	1.735778e+05
4.8480	1.737190e+05
4.8490	1.738597e+05
4.8500	1.740000e+05
4.8510	1.741398e+05
4.8520	1.742791e+05
4.8530	1.744180e+05
4.8540	1.745564e+05
4.8550	1.746945e+05
4.8560	1.748323e+05
4.8570	1.749697e+05
4.8580	1.751068e+05
4.8590	1.752437e+05
4.8600	1.753803e+05
4.8610	1.755168e+05
4.8620	1.756531e+05
4.8630	1.757892e+05
4.8640	1.759252e+05
4.8650	1.760612e+05
4.8660	1.761971e+05
4.8670	1.763330e+05
4.8680	1.764689e+05
4.8690	1.766048e+05
4.8700	1.767408e+05
4.8710	1.768769e+05
4.8720	1.770131e+05
4.8730	1.771495e+05
4.8740	1.772861e+05
4.8750	1.774228e+05
4.8760	1.775599e+05
4.8770	1.776972e+05
4.8780	1.778348e+05
4.8790	1.779727e+05
4.8800	1.781111e+05
4.8810	1.782498e+05
4.8820	1.783889e+05
4.8830	1.785285e+05
4.8840	1.786686e+05
4.8850	1.788092e+05
4.8860	1.789503e+05
4.8870	1.790920e+05
4.8880	1.792343e+05
4.8890	1.793773e+05
4.8900	1.795209e+05
4.8910	1.796652e+05
4.8920	1.798102e+05
4.8930	1.799560e+05
4.8940	1.801026e+05
4.8950	1.802499e+05
4.8960	1.803981e+05
4.8970	1.805472e+05
4.8980	1.806972e+05
4.8990	1.808481e+05
4.9000	1.810000e+05
4.9010	1.811529e+05
4.9020	1.813067e+05
4.9030	1.814614e+05
4.9040	1.816169e+05
4.9050	1.817733e+05
4.9060	1.819305e+05
4.9070	1.820885e+05
4.9080	1.822471e+05
4.9090	1.824064e+05
4.9100	1.825663e+05
4.9110	1.827268e+05
4.9120	1.828878e+05
4.9130	1.830494e+05
4.9140	1.832114e+05
4.9150	1.833738e+05
4.9160	1.835365e+05
4.9170	1.836996e+05
4.9180	1.838630e+05
4.9190	1.840267e+05
4.9200	1.841906e+05
4.9210	1.843546e+05
4.9220	1.845187e+05
4.9230	1.846830e+05
4.9240	1.848473e+05
4.9250	1.850116e+05
4.9260	1.851758e+05
4.9270	1.853400e+05
4.9280	1.855040e+05
4.9290	1.856679e+05
4.9300	1.858316e+05
4.9310	1.859951e+05
4.9320	1.861583e+05
4.9330	1.863211e+05
4.9340	1.864836e+05
4.9350	1.866457e+05
4.9360	1.868073e+05
4.9370	1.869684e+05
4.9380	1.871290e+05
4.9390	1.872891e+05
4.9400	1.874485e+05
4.9410	1.876072e+05
4.9420	1.877653e+05
4.9430	1.879227e+05
4.9440	1.880792e+05
4.9450	1.882350e+05
4.9460	1.883899e+05
4.9470	1.885438e+05
4.9480	1.886969e+05
4.9490	1.888490e+05
4.9500	1.890000e+05
4.9510	1.891500e+05
4.9520	1.892990e+05
4.9530	1.894469e+05
4.9540	1.895940e+05
4.9550	1.897401e+05
4.9560	1.898853e+05
4.9570	1.900298e+05
4.9580	1.901734e+05
4.9590	1.903162e+05
4.9600	1.904584e+05
4.9610	1.905999e+05
4.9620	1.907407e+05
4.9630	1.908809e+05
4.9640	1.910206e+05
4.9650	1.911598e+05
4.9660	1.912984e+05
4.9670	1.914366e+05
4.9680	1.915745e+05
4.9690	1.917119e+05
4.9700	1.918490e+05
4.9710	1.919858e+05
4.9720	1.921224e+05
4.9730	1.922587e+05
4.9740	1.923949e+05
4.9750	1.925309e+05
4.9760	1.926669e+05
4.9770	1.928028e+05
4.9780	1.929386e+05
4.9790	1.930745e+05
4.9800	1.932104e+05
4.9810	1.933464e+05
4.9820	1.934826e+05
4.9830	1.936189e+05
4.9840	1.937554e+05
4.9850	1.938922e+05
4.9860	1.940293e+05
4.9870	1.941667e+05
4.9880	1.943044e+05
4.9890	1.944426e+05
4.9900	1.945812e+05
4.9910	1.947203e+05
4.9920	1.948599e+05
4.9930	1.950000e+05
4.9940	1.951408e+05
4.9950	1.952822e+05
4.9960	1.954242e+05
4.9970	1.955670e+05
4.9980	1.957105e+05
4.9990	1.958549e+05
5.0000	1.960000e+05
5.0010	1.961460e+05
5.0020	1.962928e+05
5.0030	1.964405e+05
5.0040	1.965890e+05
5.0050	1.967383e+05
5.0060	1.968884e+05
5.0070	1.970392e+05
5.0080	1.971908e+05
5.0090	1.973431e+05
5.0100	1.974961e+05
5.0110	1.976498e+05
5.0120	1.978042e+05
5.0130	1.979592e+05
5.0140	1.981149e+05
5.0150	1.982712e+05
5.0160	1.984281e+05
5.0170	1.985856e+05
5.0180	1.987437e+05
5.0190	1.989023e+05
5.0200	1.990614e+05
5.0210	1.992211e+05
5.0220	1.993813e+05
5.0230	1.995420e+05
5.0240	1.997031e+05
5.0250	1.998647e+05
5.0260	2.000267e+05
5.0270	2.001891e+05
5.0280	2.003520e+05
5.0290	2.005152e+05
5.0300	2.006788e+05
5.0310	2.008427e+05
5.0320	2.010069e+05
5.0330	2.011715e+05
5.0340	2.013364e+05
5.0350	2.015015e+05
5.0360	2.016669e+05
5.0370	2.018325e+05
5.0380	2.019984e+05
5.0390	2.021645e+05
5.0400	2.023307e+05
5.0410	2.024972e+05
5.0420	2.026637e+05
5.0430	2.028305e+05
5.0440	2.029973e+05
5.0450	2.031643e+05
5.0460	2.033313e+05
5.0470	2.034984e+05
5.0480	2.036656e+05
5.0490	2.038328e+05
5.0500	2.040000e+05
5.0510	2.041672e+05
5.0520	2.043344e+05
5.0530	2.045016e+05
5.0540	2.046687e+05
5.0550	2.048357e+05
5.0560	2.050027e+05
5.0570	2.051695e+05
5.0580	2.053363e+05
5.0590	2.055028e+05
5.0600	2.056693e+05
5.0610	2.058355e+05
5.0620	2.060016e+05
5.0630	2.061675e+05
5.0640	2.063331e+05
5.0650	2.064985e+05
5.0660	2.066636e+05
5.0670	2.068285e+05
5.0680	2.069931e+05
5.0690	2.071573e+05
5.0700	2.073212e+05
5.0710	2.074848e+05
5.0720	2.076480e+05
5.0730	2.078109e+05
5.0740	2.079733e+05
5.0750	2.081353e+05
5.0760	2.082969e+05
5.0770	2.084580e+05
5.0780	2.086187e+05
5.0790	2.087789e+05
5.0800	2.089386e+05
5.0810	2.090977e+05
5.0820	2.092563e+05
5.0830	2.094144e+05
5.0840	2.095719e+05
5.0850	2.097288e+05
5.0860	2.098851e+05
5.0870	2.100408e+05
5.0880	2.101958e+05
5.0890	2.103502e+05
5.0900	2.105039e+05
5.0910	2.106569e+05
5.0920	2.108092e+05
5.0930	2.109608e+05
5.0940	2.111116e+05
5.0950	2.112617e+05
5.0960	2.114110e+05
5.0970	2.115595e+05
5.0980	2.117072e+05
5.0990	2.118540e+05
